,Time:512Hz,Epoch,Electrode,Attention,Meditation,Delta,Theta,Low Alpha,High Alpha,Low Beta,High Beta,Low Gamma,Mid Gamma,Blink Strength,Event Id,Event Date,Event Duration,Band 0.00 - 70.00
0,0.0,0,18.0,0.0,0.0,209196.0,74751.0,1302.0,39825.0,1667.0,12881.0,547.0,70766.0,0.0,,,,219041.0
1,0.001953125,0,17.0,0.0,0.0,209196.0,74751.0,1302.0,39825.0,1667.0,12881.0,547.0,70766.0,0.0,,,,81606.80618808974
2,0.00390625,0,17.0,0.0,0.0,209196.0,74751.0,1302.0,39825.0,1667.0,12881.0,547.0,70766.0,0.0,,,,64260.93352423293
3,0.005859375,0,17.0,0.0,0.0,209196.0,74751.0,1302.0,39825.0,1667.0,12881.0,547.0,70766.0,0.0,,,,53409.042672390184
4,0.0078125,0,17.0,0.0,0.0,209196.0,74751.0,1302.0,39825.0,1667.0,12881.0,547.0,70766.0,0.0,,,,30850.07736944417
5,0.009765625,0,18.0,0.0,0.0,209196.0,74751.0,1302.0,39825.0,1667.0,12881.0,547.0,70766.0,0.0,,,,44294.92431537035
6,0.01171875,0,17.0,0.0,0.0,209196.0,74751.0,1302.0,39825.0,1667.0,12881.0,547.0,70766.0,0.0,,,,34420.036457809634
7,0.013671875,0,17.0,0.0,0.0,209196.0,74751.0,1302.0,39825.0,1667.0,12881.0,547.0,70766.0,0.0,,,,21244.05552949188
8,0.015625,0,17.0,0.0,0.0,209196.0,74751.0,1302.0,39825.0,1667.0,12881.0,547.0,70766.0,0.0,,,,73698.48587820744
9,0.017578125,0,17.0,0.0,0.0,209196.0,74751.0,1302.0,39825.0,1667.0,12881.0,547.0,70766.0,0.0,,,,22217.255897972413
10,0.01953125,0,17.0,0.0,0.0,209196.0,74751.0,1302.0,39825.0,1667.0,12881.0,547.0,70766.0,0.0,,,,59460.70720846916
11,0.021484375,0,17.0,0.0,0.0,209196.0,74751.0,1302.0,39825.0,1667.0,12881.0,547.0,70766.0,0.0,,,,14993.005480371281
12,0.0234375,0,17.0,0.0,0.0,1093020.0,54438.0,12924.0,43325.0,5257.0,12345.0,5860.0,98103.0,0.0,,,,91643.9278529743
13,0.025390625,0,17.0,0.0,0.0,1093020.0,54438.0,12924.0,43325.0,5257.0,12345.0,5860.0,98103.0,0.0,,,,30778.064587645953
14,0.02734375,0,17.0,0.0,0.0,1093020.0,54438.0,12924.0,43325.0,5257.0,12345.0,5860.0,98103.0,0.0,,,,86000.72051367689
15,0.029296875,0,17.0,0.0,0.0,1093020.0,54438.0,12924.0,43325.0,5257.0,12345.0,5860.0,98103.0,0.0,,,,31459.868922643895
16,0.03125,0,17.0,0.0,0.0,1093020.0,54438.0,12924.0,43325.0,5257.0,12345.0,5860.0,98103.0,0.0,,,,32771.4269813848
17,0.033203125,0,17.0,0.0,0.0,1093020.0,54438.0,12924.0,43325.0,5257.0,12345.0,5860.0,98103.0,0.0,,,,42654.0811513808
18,0.03515625,0,17.0,0.0,0.0,1093020.0,54438.0,12924.0,43325.0,5257.0,12345.0,5860.0,98103.0,0.0,,,,41167.04309074628
19,0.037109375,0,17.0,0.0,0.0,1093020.0,54438.0,12924.0,43325.0,5257.0,12345.0,5860.0,98103.0,0.0,,,,44585.360814095744
20,0.0390625,0,17.0,0.0,0.0,1093020.0,54438.0,12924.0,43325.0,5257.0,12345.0,5860.0,98103.0,0.0,,,,39751.28878187517
21,0.041015625,0,17.0,0.0,0.0,1093020.0,54438.0,12924.0,43325.0,5257.0,12345.0,5860.0,98103.0,0.0,,,,91463.18960751178
22,0.04296875,0,18.0,0.0,0.0,1093020.0,54438.0,12924.0,43325.0,5257.0,12345.0,5860.0,98103.0,0.0,,,,31740.499570524487
23,0.044921875,0,17.0,0.0,0.0,1093020.0,54438.0,12924.0,43325.0,5257.0,12345.0,5860.0,98103.0,0.0,,,,64772.010792016714
24,0.046875,0,17.0,0.0,0.0,1093020.0,54438.0,12924.0,43325.0,5257.0,12345.0,5860.0,98103.0,0.0,,,,19892.55266623371
25,0.048828125,0,17.0,0.0,0.0,1093020.0,54438.0,12924.0,43325.0,5257.0,12345.0,5860.0,98103.0,0.0,,,,57385.292807139864
26,0.05078125,0,17.0,0.0,0.0,1093020.0,54438.0,12924.0,43325.0,5257.0,12345.0,5860.0,98103.0,0.0,,,,40810.038732105095
27,0.052734375,0,17.0,0.0,0.0,1093020.0,54438.0,12924.0,43325.0,5257.0,12345.0,5860.0,98103.0,0.0,,,,54632.06398246053
28,0.0546875,0,17.0,0.0,0.0,1093020.0,54438.0,12924.0,43325.0,5257.0,12345.0,5860.0,98103.0,0.0,,,,18950.893721152835
29,0.056640625,0,17.0,0.0,0.0,1093020.0,54438.0,12924.0,43325.0,5257.0,12345.0,5860.0,98103.0,0.0,,,,31038.14220546336
30,0.05859375,0,17.0,0.0,0.0,1093020.0,54438.0,12924.0,43325.0,5257.0,12345.0,5860.0,98103.0,0.0,,,,45854.99526289097
31,0.060546875,0,17.0,0.0,0.0,1093020.0,54438.0,12924.0,43325.0,5257.0,12345.0,5860.0,98103.0,0.0,,,,20906.511758297063
32,0.0625,1,17.0,0.0,0.0,1093020.0,54438.0,12924.0,43325.0,5257.0,12345.0,5860.0,98103.0,0.0,,,,27842.410601034033
33,0.064453125,1,17.0,0.0,0.0,1093020.0,54438.0,12924.0,43325.0,5257.0,12345.0,5860.0,98103.0,0.0,,,,45464.64165707421
34,0.06640625,1,18.0,0.0,0.0,1093020.0,54438.0,12924.0,43325.0,5257.0,12345.0,5860.0,98103.0,0.0,,,,42657.51234139479
35,0.068359375,1,17.0,0.0,0.0,1093020.0,54438.0,12924.0,43325.0,5257.0,12345.0,5860.0,98103.0,0.0,,,,36090.407780318936
36,0.0703125,1,18.0,0.0,0.0,1093020.0,54438.0,12924.0,43325.0,5257.0,12345.0,5860.0,98103.0,0.0,,,,26229.321890036917
37,0.072265625,1,2.0,0.0,0.0,1093020.0,54438.0,12924.0,43325.0,5257.0,12345.0,5860.0,98103.0,0.0,,,,15447.418578334968
38,0.07421875,1,412.0,0.0,0.0,1093020.0,54438.0,12924.0,43325.0,5257.0,12345.0,5860.0,98103.0,0.0,,,,14047.297348017615
39,0.076171875,1,1145.0,0.0,0.0,1093020.0,54438.0,12924.0,43325.0,5257.0,12345.0,5860.0,98103.0,0.0,,,,31976.769763715933
40,0.078125,1,1797.0,0.0,0.0,1093020.0,54438.0,12924.0,43325.0,5257.0,12345.0,5860.0,98103.0,0.0,,,,20925.539940765466
41,0.080078125,1,2047.0,0.0,0.0,1093020.0,54438.0,12924.0,43325.0,5257.0,12345.0,5860.0,98103.0,0.0,,,,5138.097654744885
42,0.08203125,1,2047.0,0.0,0.0,1093020.0,54438.0,12924.0,43325.0,5257.0,12345.0,5860.0,98103.0,0.0,,,,37496.15612721545
43,0.083984375,1,1996.0,0.0,0.0,1093020.0,54438.0,12924.0,43325.0,5257.0,12345.0,5860.0,98103.0,0.0,,,,23277.31059204946
44,0.0859375,1,1876.0,0.0,0.0,1093020.0,54438.0,12924.0,43325.0,5257.0,12345.0,5860.0,98103.0,0.0,,,,31934.271809568065
45,0.087890625,1,1724.0,0.0,0.0,1093020.0,54438.0,12924.0,43325.0,5257.0,12345.0,5860.0,98103.0,0.0,,,,10601.212982908268
46,0.08984375,1,1496.0,0.0,0.0,1093020.0,54438.0,12924.0,43325.0,5257.0,12345.0,5860.0,98103.0,0.0,,,,28687.256854532978
47,0.091796875,1,1228.0,0.0,0.0,1093020.0,54438.0,12924.0,43325.0,5257.0,12345.0,5860.0,98103.0,0.0,,,,2654.1244419800346
48,0.09375,1,1018.0,0.0,0.0,1093020.0,54438.0,12924.0,43325.0,5257.0,12345.0,5860.0,98103.0,0.0,,,,26733.604834020993
49,0.095703125,1,946.0,0.0,0.0,1093020.0,54438.0,12924.0,43325.0,5257.0,12345.0,5860.0,98103.0,0.0,,,,17983.142613970216
50,0.09765625,1,1026.0,0.0,0.0,1093020.0,54438.0,12924.0,43325.0,5257.0,12345.0,5860.0,98103.0,0.0,,,,13039.943775698095
51,0.099609375,1,1158.0,0.0,0.0,1093020.0,54438.0,12924.0,43325.0,5257.0,12345.0,5860.0,98103.0,0.0,,,,20929.973205374343
52,0.1015625,1,1236.0,0.0,0.0,1093020.0,54438.0,12924.0,43325.0,5257.0,12345.0,5860.0,98103.0,0.0,,,,16004.260910034367
53,0.103515625,1,1268.0,0.0,0.0,1093020.0,54438.0,12924.0,43325.0,5257.0,12345.0,5860.0,98103.0,0.0,,,,14444.71634651471
54,0.10546875,1,1320.0,0.0,0.0,1093020.0,54438.0,12924.0,43325.0,5257.0,12345.0,5860.0,98103.0,0.0,,,,12894.86564593629
55,0.107421875,1,1349.0,0.0,0.0,1093020.0,54438.0,12924.0,43325.0,5257.0,12345.0,5860.0,98103.0,0.0,,,,22469.52819845882
56,0.109375,1,1248.0,0.0,0.0,1093020.0,54438.0,12924.0,43325.0,5257.0,12345.0,5860.0,98103.0,0.0,,,,9080.568849200485
57,0.111328125,1,977.0,0.0,0.0,1093020.0,54438.0,12924.0,43325.0,5257.0,12345.0,5860.0,98103.0,0.0,,,,18977.18092105303
58,0.11328125,1,650.0,0.0,0.0,1093020.0,54438.0,12924.0,43325.0,5257.0,12345.0,5860.0,98103.0,0.0,,,,18064.498076072494
59,0.115234375,1,448.0,0.0,0.0,1093020.0,54438.0,12924.0,43325.0,5257.0,12345.0,5860.0,98103.0,0.0,,,,14544.157609974181
60,0.1171875,1,460.0,0.0,0.0,1093020.0,54438.0,12924.0,43325.0,5257.0,12345.0,5860.0,98103.0,0.0,,,,17480.95731215468
61,0.119140625,1,621.0,0.0,0.0,1093020.0,54438.0,12924.0,43325.0,5257.0,12345.0,5860.0,98103.0,0.0,,,,16766.09843998832
62,0.12109375,1,818.0,0.0,0.0,1093020.0,54438.0,12924.0,43325.0,5257.0,12345.0,5860.0,98103.0,0.0,,,,8037.223755502847
63,0.123046875,1,1003.0,0.0,0.0,1093020.0,54438.0,12924.0,43325.0,5257.0,12345.0,5860.0,98103.0,0.0,,,,14112.836611785797
64,0.125,2,1133.0,0.0,0.0,1093020.0,54438.0,12924.0,43325.0,5257.0,12345.0,5860.0,98103.0,0.0,,,,12133.29274555839
65,0.126953125,2,1154.0,0.0,0.0,1093020.0,54438.0,12924.0,43325.0,5257.0,12345.0,5860.0,98103.0,0.0,,,,16128.666507886333
66,0.12890625,2,1036.0,0.0,0.0,1093020.0,54438.0,12924.0,43325.0,5257.0,12345.0,5860.0,98103.0,0.0,,,,9756.911172352338
67,0.130859375,2,745.0,0.0,0.0,1093020.0,54438.0,12924.0,43325.0,5257.0,12345.0,5860.0,98103.0,0.0,,,,15839.002909634568
68,0.1328125,2,364.0,0.0,0.0,1093020.0,54438.0,12924.0,43325.0,5257.0,12345.0,5860.0,98103.0,0.0,,,,13499.79173445017
69,0.134765625,2,102.0,0.0,0.0,1093020.0,54438.0,12924.0,43325.0,5257.0,12345.0,5860.0,98103.0,0.0,,,,13448.172376234244
70,0.13671875,2,75.0,0.0,0.0,1093020.0,54438.0,12924.0,43325.0,5257.0,12345.0,5860.0,98103.0,0.0,,,,12871.182287115826
71,0.138671875,2,273.0,0.0,0.0,1093020.0,54438.0,12924.0,43325.0,5257.0,12345.0,5860.0,98103.0,0.0,,,,9979.050530440447
72,0.140625,2,553.0,0.0,0.0,1093020.0,54438.0,12924.0,43325.0,5257.0,12345.0,5860.0,98103.0,0.0,,,,15146.278842166097
73,0.142578125,2,795.0,0.0,0.0,1093020.0,54438.0,12924.0,43325.0,5257.0,12345.0,5860.0,98103.0,0.0,,,,6920.628273115595
74,0.14453125,2,938.0,0.0,0.0,1093020.0,54438.0,12924.0,43325.0,5257.0,12345.0,5860.0,98103.0,0.0,,,,11681.31934802707
75,0.146484375,2,979.0,0.0,0.0,1093020.0,54438.0,12924.0,43325.0,5257.0,12345.0,5860.0,98103.0,0.0,,,,7986.486686617413
76,0.1484375,2,919.0,0.0,0.0,1093020.0,54438.0,12924.0,43325.0,5257.0,12345.0,5860.0,98103.0,0.0,,,,15115.196212500648
77,0.150390625,2,728.0,0.0,0.0,1093020.0,54438.0,12924.0,43325.0,5257.0,12345.0,5860.0,98103.0,0.0,,,,8582.249967503329
78,0.15234375,2,406.0,0.0,0.0,1093020.0,54438.0,12924.0,43325.0,5257.0,12345.0,5860.0,98103.0,0.0,,,,9618.90750009767
79,0.154296875,2,91.0,0.0,0.0,1093020.0,54438.0,12924.0,43325.0,5257.0,12345.0,5860.0,98103.0,0.0,,,,9505.328958117123
80,0.15625,2,-54.0,0.0,0.0,1093020.0,54438.0,12924.0,43325.0,5257.0,12345.0,5860.0,98103.0,0.0,,,,14218.80053995824
81,0.158203125,2,52.0,0.0,0.0,1093020.0,54438.0,12924.0,43325.0,5257.0,12345.0,5860.0,98103.0,0.0,,,,12705.1802916137
82,0.16015625,2,311.0,0.0,0.0,1093020.0,54438.0,12924.0,43325.0,5257.0,12345.0,5860.0,98103.0,0.0,,,,12448.015775777752
83,0.162109375,2,546.0,0.0,0.0,1093020.0,54438.0,12924.0,43325.0,5257.0,12345.0,5860.0,98103.0,0.0,,,,8747.823046748239
84,0.1640625,2,711.0,0.0,0.0,1093020.0,54438.0,12924.0,43325.0,5257.0,12345.0,5860.0,98103.0,0.0,,,,6957.436023796038
85,0.166015625,2,796.0,0.0,0.0,1093020.0,54438.0,12924.0,43325.0,5257.0,12345.0,5860.0,98103.0,0.0,,,,11207.76148988873
86,0.16796875,2,775.0,0.0,0.0,1093020.0,54438.0,12924.0,43325.0,5257.0,12345.0,5860.0,98103.0,0.0,,,,5092.529029221369
87,0.169921875,2,584.0,0.0,0.0,1093020.0,54438.0,12924.0,43325.0,5257.0,12345.0,5860.0,98103.0,0.0,,,,9423.192622761217
88,0.171875,2,243.0,0.0,0.0,1093020.0,54438.0,12924.0,43325.0,5257.0,12345.0,5860.0,98103.0,0.0,,,,11315.733672377268
89,0.173828125,2,-68.0,0.0,0.0,1093020.0,54438.0,12924.0,43325.0,5257.0,12345.0,5860.0,98103.0,0.0,,,,12316.518416771722
90,0.17578125,2,-185.0,0.0,0.0,1093020.0,54438.0,12924.0,43325.0,5257.0,12345.0,5860.0,98103.0,0.0,,,,7798.005035839298
91,0.177734375,2,-59.0,0.0,0.0,1093020.0,54438.0,12924.0,43325.0,5257.0,12345.0,5860.0,98103.0,0.0,,,,13299.878035962403
92,0.1796875,2,196.0,0.0,0.0,1093020.0,54438.0,12924.0,43325.0,5257.0,12345.0,5860.0,98103.0,0.0,,,,16339.395129804308
93,0.181640625,2,435.0,0.0,0.0,1093020.0,54438.0,12924.0,43325.0,5257.0,12345.0,5860.0,98103.0,0.0,,,,10488.952176214783
94,0.18359375,2,588.0,0.0,0.0,1093020.0,54438.0,12924.0,43325.0,5257.0,12345.0,5860.0,98103.0,0.0,,,,5629.921796147579
95,0.185546875,2,673.0,0.0,0.0,1093020.0,54438.0,12924.0,43325.0,5257.0,12345.0,5860.0,98103.0,0.0,,,,7928.8085029533395
96,0.1875,3,685.0,0.0,0.0,1093020.0,54438.0,12924.0,43325.0,5257.0,12345.0,5860.0,98103.0,0.0,,,,12625.34103822302
97,0.189453125,3,581.0,0.0,0.0,1093020.0,54438.0,12924.0,43325.0,5257.0,12345.0,5860.0,98103.0,0.0,,,,1685.4465360004579
98,0.19140625,3,306.0,0.0,0.0,1093020.0,54438.0,12924.0,43325.0,5257.0,12345.0,5860.0,98103.0,0.0,,,,12182.073074633685
99,0.193359375,3,-58.0,0.0,0.0,1093020.0,54438.0,12924.0,43325.0,5257.0,12345.0,5860.0,98103.0,0.0,,,,9281.402783996733
100,0.1953125,3,-310.0,0.0,0.0,1093020.0,54438.0,12924.0,43325.0,5257.0,12345.0,5860.0,98103.0,0.0,,,,12788.872682014326
101,0.197265625,3,-294.0,0.0,0.0,1093020.0,54438.0,12924.0,43325.0,5257.0,12345.0,5860.0,98103.0,0.0,,,,10104.70469313679
102,0.19921875,3,-46.0,0.0,0.0,1093020.0,54438.0,12924.0,43325.0,5257.0,12345.0,5860.0,98103.0,0.0,,,,13789.180037201584
103,0.201171875,3,248.0,0.0,0.0,1093020.0,54438.0,12924.0,43325.0,5257.0,12345.0,5860.0,98103.0,0.0,,,,9848.997990347361
104,0.203125,3,466.0,0.0,0.0,1093020.0,54438.0,12924.0,43325.0,5257.0,12345.0,5860.0,98103.0,0.0,,,,13213.172005045051
105,0.205078125,3,569.0,0.0,0.0,1093020.0,54438.0,12924.0,43325.0,5257.0,12345.0,5860.0,98103.0,0.0,,,,7980.975830781871
106,0.20703125,3,584.0,0.0,0.0,1093020.0,54438.0,12924.0,43325.0,5257.0,12345.0,5860.0,98103.0,0.0,,,,13083.894106776492
107,0.208984375,3,512.0,0.0,0.0,1093020.0,54438.0,12924.0,43325.0,5257.0,12345.0,5860.0,98103.0,0.0,,,,4257.713748427774
108,0.2109375,3,298.0,0.0,0.0,1093020.0,54438.0,12924.0,43325.0,5257.0,12345.0,5860.0,98103.0,0.0,,,,10069.182974634816
109,0.212890625,3,-37.0,0.0,0.0,1093020.0,54438.0,12924.0,43325.0,5257.0,12345.0,5860.0,98103.0,0.0,,,,7995.96597839861
110,0.21484375,3,-333.0,0.0,0.0,1093020.0,54438.0,12924.0,43325.0,5257.0,12345.0,5860.0,98103.0,0.0,,,,9049.750426248502
111,0.216796875,3,-419.0,0.0,0.0,1093020.0,54438.0,12924.0,43325.0,5257.0,12345.0,5860.0,98103.0,0.0,,,,6694.9722847059975
112,0.21875,3,-261.0,0.0,0.0,1093020.0,54438.0,12924.0,43325.0,5257.0,12345.0,5860.0,98103.0,0.0,,,,10606.617679141207
113,0.220703125,3,19.0,0.0,0.0,1093020.0,54438.0,12924.0,43325.0,5257.0,12345.0,5860.0,98103.0,0.0,,,,4393.837035353218
114,0.22265625,3,279.0,0.0,0.0,1093020.0,54438.0,12924.0,43325.0,5257.0,12345.0,5860.0,98103.0,0.0,,,,11343.603765943162
115,0.224609375,3,439.0,0.0,0.0,1093020.0,54438.0,12924.0,43325.0,5257.0,12345.0,5860.0,98103.0,0.0,,,,7487.041952327791
116,0.2265625,3,504.0,0.0,0.0,1093020.0,54438.0,12924.0,43325.0,5257.0,12345.0,5860.0,98103.0,0.0,,,,10334.777171982652
117,0.228515625,3,491.0,0.0,0.0,1093020.0,54438.0,12924.0,43325.0,5257.0,12345.0,5860.0,98103.0,0.0,,,,6561.383214593865
118,0.23046875,3,332.0,0.0,0.0,1093020.0,54438.0,12924.0,43325.0,5257.0,12345.0,5860.0,98103.0,0.0,,,,9600.676609653248
119,0.232421875,3,10.0,0.0,0.0,1093020.0,54438.0,12924.0,43325.0,5257.0,12345.0,5860.0,98103.0,0.0,,,,8575.847173556547
120,0.234375,3,-321.0,0.0,0.0,1093020.0,54438.0,12924.0,43325.0,5257.0,12345.0,5860.0,98103.0,0.0,,,,13210.742411809495
121,0.236328125,3,-462.0,0.0,0.0,1093020.0,54438.0,12924.0,43325.0,5257.0,12345.0,5860.0,98103.0,0.0,,,,9723.569167807027
122,0.23828125,3,-322.0,0.0,0.0,1093020.0,54438.0,12924.0,43325.0,5257.0,12345.0,5860.0,98103.0,0.0,,,,8854.864741372628
123,0.240234375,3,-38.0,0.0,0.0,1093020.0,54438.0,12924.0,43325.0,5257.0,12345.0,5860.0,98103.0,0.0,,,,1165.3667347971436
124,0.2421875,3,216.0,0.0,0.0,1093020.0,54438.0,12924.0,43325.0,5257.0,12345.0,5860.0,98103.0,0.0,,,,5633.345098840215
125,0.244140625,3,392.0,0.0,0.0,1093020.0,54438.0,12924.0,43325.0,5257.0,12345.0,5860.0,98103.0,0.0,,,,6140.013153565498
126,0.24609375,3,476.0,0.0,0.0,1093020.0,54438.0,12924.0,43325.0,5257.0,12345.0,5860.0,98103.0,0.0,,,,11012.529483814767
127,0.248046875,3,476.0,0.0,0.0,1093020.0,54438.0,12924.0,43325.0,5257.0,12345.0,5860.0,98103.0,0.0,,,,7290.424101301461
128,0.25,4,356.0,0.0,0.0,1093020.0,54438.0,12924.0,43325.0,5257.0,12345.0,5860.0,98103.0,0.0,,,,5047.3869287365405
129,0.251953125,4,71.0,0.0,0.0,1093020.0,54438.0,12924.0,43325.0,5257.0,12345.0,5860.0,98103.0,0.0,,,,6097.525552492142
130,0.25390625,4,-263.0,0.0,0.0,1093020.0,54438.0,12924.0,43325.0,5257.0,12345.0,5860.0,98103.0,0.0,,,,12354.312341968971
131,0.255859375,4,-459.0,0.0,0.0,1093020.0,54438.0,12924.0,43325.0,5257.0,12345.0,5860.0,98103.0,0.0,,,,4160.917448573479
132,0.2578125,4,-410.0,0.0,0.0,1093020.0,54438.0,12924.0,43325.0,5257.0,12345.0,5860.0,98103.0,0.0,,,,5999.125684642726
133,0.259765625,4,-185.0,0.0,0.0,1093020.0,54438.0,12924.0,43325.0,5257.0,12345.0,5860.0,98103.0,0.0,,,,7211.22325132789
134,0.26171875,4,52.0,0.0,0.0,1093020.0,54438.0,12924.0,43325.0,5257.0,12345.0,5860.0,98103.0,0.0,,,,8127.453223832769
135,0.263671875,4,273.0,0.0,0.0,1093020.0,54438.0,12924.0,43325.0,5257.0,12345.0,5860.0,98103.0,0.0,,,,9334.238495582089
136,0.265625,4,432.0,0.0,0.0,1093020.0,54438.0,12924.0,43325.0,5257.0,12345.0,5860.0,98103.0,0.0,,,,6844.500144891202
137,0.267578125,4,484.0,0.0,0.0,1093020.0,54438.0,12924.0,43325.0,5257.0,12345.0,5860.0,98103.0,0.0,,,,7280.551720645437
138,0.26953125,4,405.0,0.0,0.0,1093020.0,54438.0,12924.0,43325.0,5257.0,12345.0,5860.0,98103.0,0.0,,,,6877.157468572619
139,0.271484375,4,149.0,0.0,0.0,1093020.0,54438.0,12924.0,43325.0,5257.0,12345.0,5860.0,98103.0,0.0,,,,8298.824429864939
140,0.2734375,4,-187.0,0.0,0.0,1093020.0,54438.0,12924.0,43325.0,5257.0,12345.0,5860.0,98103.0,0.0,,,,6816.15464091291
141,0.275390625,4,-423.0,0.0,0.0,1093020.0,54438.0,12924.0,43325.0,5257.0,12345.0,5860.0,98103.0,0.0,,,,13776.294081517164
142,0.27734375,4,-449.0,0.0,0.0,1093020.0,54438.0,12924.0,43325.0,5257.0,12345.0,5860.0,98103.0,0.0,,,,9721.776540421713
143,0.279296875,4,-258.0,0.0,0.0,1093020.0,54438.0,12924.0,43325.0,5257.0,12345.0,5860.0,98103.0,0.0,,,,7530.722496311689
144,0.28125,4,33.0,0.0,0.0,1093020.0,54438.0,12924.0,43325.0,5257.0,12345.0,5860.0,98103.0,0.0,,,,6388.574064720445
145,0.283203125,4,290.0,0.0,0.0,1093020.0,54438.0,12924.0,43325.0,5257.0,12345.0,5860.0,98103.0,0.0,,,,6114.807083159819
146,0.28515625,4,425.0,0.0,0.0,1093020.0,54438.0,12924.0,43325.0,5257.0,12345.0,5860.0,98103.0,0.0,,,,2866.1430401130847
147,0.287109375,4,475.0,0.0,0.0,1093020.0,54438.0,12924.0,43325.0,5257.0,12345.0,5860.0,98103.0,0.0,,,,7990.5091484501245
148,0.2890625,4,436.0,0.0,0.0,1093020.0,54438.0,12924.0,43325.0,5257.0,12345.0,5860.0,98103.0,0.0,,,,5328.109087599225
149,0.291015625,4,264.0,0.0,0.0,1093020.0,54438.0,12924.0,43325.0,5257.0,12345.0,5860.0,98103.0,0.0,,,,9464.974800083235
150,0.29296875,4,-72.0,0.0,0.0,1093020.0,54438.0,12924.0,43325.0,5257.0,12345.0,5860.0,98103.0,0.0,,,,5347.912695641114
151,0.294921875,4,-420.0,0.0,0.0,1093020.0,54438.0,12924.0,43325.0,5257.0,12345.0,5860.0,98103.0,0.0,,,,4381.109001766691
152,0.296875,4,-542.0,0.0,0.0,1093020.0,54438.0,12924.0,43325.0,5257.0,12345.0,5860.0,98103.0,0.0,,,,6437.279854390241
153,0.298828125,4,-379.0,0.0,0.0,1093020.0,54438.0,12924.0,43325.0,5257.0,12345.0,5860.0,98103.0,0.0,,,,7927.038575532604
154,0.30078125,4,-87.0,0.0,0.0,1093020.0,54438.0,12924.0,43325.0,5257.0,12345.0,5860.0,98103.0,0.0,,,,8304.218542584893
155,0.302734375,4,167.0,0.0,0.0,1093020.0,54438.0,12924.0,43325.0,5257.0,12345.0,5860.0,98103.0,0.0,,,,5734.49974822571
156,0.3046875,4,344.0,0.0,0.0,1093020.0,54438.0,12924.0,43325.0,5257.0,12345.0,5860.0,98103.0,0.0,,,,6697.120487447081
157,0.306640625,4,433.0,0.0,0.0,1093020.0,54438.0,12924.0,43325.0,5257.0,12345.0,5860.0,98103.0,0.0,,,,5335.361276130015
158,0.30859375,4,453.0,0.0,0.0,1093020.0,54438.0,12924.0,43325.0,5257.0,12345.0,5860.0,98103.0,0.0,,,,6672.023878448027
159,0.310546875,4,357.0,0.0,0.0,1093020.0,54438.0,12924.0,43325.0,5257.0,12345.0,5860.0,98103.0,0.0,,,,4270.19137518535
160,0.3125,5,85.0,0.0,0.0,1093020.0,54438.0,12924.0,43325.0,5257.0,12345.0,5860.0,98103.0,0.0,,,,7529.500870476967
161,0.314453125,5,-258.0,0.0,0.0,1093020.0,54438.0,12924.0,43325.0,5257.0,12345.0,5860.0,98103.0,0.0,,,,10358.431805386826
162,0.31640625,5,-469.0,0.0,0.0,1093020.0,54438.0,12924.0,43325.0,5257.0,12345.0,5860.0,98103.0,0.0,,,,5720.991885619249
163,0.318359375,5,-421.0,0.0,0.0,1093020.0,54438.0,12924.0,43325.0,5257.0,12345.0,5860.0,98103.0,0.0,,,,10266.0210222645
164,0.3203125,5,-170.0,0.0,0.0,1093020.0,54438.0,12924.0,43325.0,5257.0,12345.0,5860.0,98103.0,0.0,,,,8596.277210429249
165,0.322265625,5,84.0,0.0,0.0,1093020.0,54438.0,12924.0,43325.0,5257.0,12345.0,5860.0,98103.0,0.0,,,,5572.67555874404
166,0.32421875,5,272.0,0.0,0.0,1093020.0,54438.0,12924.0,43325.0,5257.0,12345.0,5860.0,98103.0,0.0,,,,7593.92749017578
167,0.326171875,5,401.0,0.0,0.0,1093020.0,54438.0,12924.0,43325.0,5257.0,12345.0,5860.0,98103.0,0.0,,,,12145.931047851755
168,0.328125,5,444.0,0.0,0.0,1093020.0,54438.0,12924.0,43325.0,5257.0,12345.0,5860.0,98103.0,0.0,,,,6160.672216750391
169,0.330078125,5,356.0,0.0,0.0,1093020.0,54438.0,12924.0,43325.0,5257.0,12345.0,5860.0,98103.0,0.0,,,,7201.32886167659
170,0.33203125,5,104.0,0.0,0.0,1093020.0,54438.0,12924.0,43325.0,5257.0,12345.0,5860.0,98103.0,0.0,,,,3484.4463367986295
171,0.333984375,5,-219.0,0.0,0.0,1093020.0,54438.0,12924.0,43325.0,5257.0,12345.0,5860.0,98103.0,0.0,,,,6237.974424556382
172,0.3359375,5,-438.0,0.0,0.0,1093020.0,54438.0,12924.0,43325.0,5257.0,12345.0,5860.0,98103.0,0.0,,,,4764.246168605402
173,0.337890625,5,-434.0,0.0,0.0,1093020.0,54438.0,12924.0,43325.0,5257.0,12345.0,5860.0,98103.0,0.0,,,,5842.267150688582
174,0.33984375,5,-230.0,0.0,0.0,1093020.0,54438.0,12924.0,43325.0,5257.0,12345.0,5860.0,98103.0,0.0,,,,4715.3659692966585
175,0.341796875,5,37.0,0.0,0.0,1093020.0,54438.0,12924.0,43325.0,5257.0,12345.0,5860.0,98103.0,0.0,,,,9608.733132066938
176,0.34375,5,250.0,0.0,0.0,1093020.0,54438.0,12924.0,43325.0,5257.0,12345.0,5860.0,98103.0,0.0,,,,6111.5401720563905
177,0.345703125,5,393.0,0.0,0.0,1093020.0,54438.0,12924.0,43325.0,5257.0,12345.0,5860.0,98103.0,0.0,,,,9273.43150109803
178,0.34765625,5,480.0,0.0,0.0,1093020.0,54438.0,12924.0,43325.0,5257.0,12345.0,5860.0,98103.0,0.0,,,,7992.11107394432
179,0.349609375,5,464.0,0.0,0.0,1093020.0,54438.0,12924.0,43325.0,5257.0,12345.0,5860.0,98103.0,0.0,,,,3699.4189343545186
180,0.3515625,5,289.0,0.0,0.0,1093020.0,54438.0,12924.0,43325.0,5257.0,12345.0,5860.0,98103.0,0.0,,,,7651.352937758445
181,0.353515625,5,-33.0,0.0,0.0,1093020.0,54438.0,12924.0,43325.0,5257.0,12345.0,5860.0,98103.0,0.0,,,,9150.236396620914
182,0.35546875,5,-337.0,0.0,0.0,1093020.0,54438.0,12924.0,43325.0,5257.0,12345.0,5860.0,98103.0,0.0,,,,2987.66995425214
183,0.357421875,5,-440.0,0.0,0.0,1093020.0,54438.0,12924.0,43325.0,5257.0,12345.0,5860.0,98103.0,0.0,,,,12279.058832557605
184,0.359375,5,-302.0,0.0,0.0,1093020.0,54438.0,12924.0,43325.0,5257.0,12345.0,5860.0,98103.0,0.0,,,,8171.873745894667
185,0.361328125,5,-50.0,0.0,0.0,1093020.0,54438.0,12924.0,43325.0,5257.0,12345.0,5860.0,98103.0,0.0,,,,3541.9323712046107
186,0.36328125,5,182.0,0.0,0.0,1093020.0,54438.0,12924.0,43325.0,5257.0,12345.0,5860.0,98103.0,0.0,,,,5724.171885503811
187,0.365234375,5,333.0,0.0,0.0,1093020.0,54438.0,12924.0,43325.0,5257.0,12345.0,5860.0,98103.0,0.0,,,,5825.545463425816
188,0.3671875,5,400.0,0.0,0.0,1093020.0,54438.0,12924.0,43325.0,5257.0,12345.0,5860.0,98103.0,0.0,,,,4357.56281727138
189,0.369140625,5,384.0,0.0,0.0,1093020.0,54438.0,12924.0,43325.0,5257.0,12345.0,5860.0,98103.0,0.0,,,,7286.590334119368
190,0.37109375,5,245.0,0.0,0.0,1093020.0,54438.0,12924.0,43325.0,5257.0,12345.0,5860.0,98103.0,0.0,,,,4023.9511833075626
191,0.373046875,5,-29.0,0.0,0.0,1093020.0,54438.0,12924.0,43325.0,5257.0,12345.0,5860.0,98103.0,0.0,,,,8946.26436913308
192,0.375,6,-340.0,0.0,0.0,1093020.0,54438.0,12924.0,43325.0,5257.0,12345.0,5860.0,98103.0,0.0,,,,8809.661569455902
193,0.376953125,6,-491.0,0.0,0.0,1093020.0,54438.0,12924.0,43325.0,5257.0,12345.0,5860.0,98103.0,0.0,,,,4921.76256686101
194,0.37890625,6,-390.0,0.0,0.0,1093020.0,54438.0,12924.0,43325.0,5257.0,12345.0,5860.0,98103.0,0.0,,,,5021.542692601204
195,0.380859375,6,-129.0,0.0,0.0,1093020.0,54438.0,12924.0,43325.0,5257.0,12345.0,5860.0,98103.0,0.0,,,,7593.252699637316
196,0.3828125,6,134.0,0.0,0.0,1093020.0,54438.0,12924.0,43325.0,5257.0,12345.0,5860.0,98103.0,0.0,,,,888.9550073734348
197,0.384765625,6,353.0,0.0,0.0,1093020.0,54438.0,12924.0,43325.0,5257.0,12345.0,5860.0,98103.0,0.0,,,,6865.859127244161
198,0.38671875,6,483.0,0.0,0.0,1093020.0,54438.0,12924.0,43325.0,5257.0,12345.0,5860.0,98103.0,0.0,,,,7200.206452439085
199,0.388671875,6,489.0,0.0,0.0,1093020.0,54438.0,12924.0,43325.0,5257.0,12345.0,5860.0,98103.0,0.0,,,,6428.169996243262
200,0.390625,6,373.0,0.0,0.0,1093020.0,54438.0,12924.0,43325.0,5257.0,12345.0,5860.0,98103.0,0.0,,,,4082.889806865827
201,0.392578125,6,114.0,0.0,0.0,1093020.0,54438.0,12924.0,43325.0,5257.0,12345.0,5860.0,98103.0,0.0,,,,5053.895247984447
202,0.39453125,6,-217.0,0.0,0.0,1093020.0,54438.0,12924.0,43325.0,5257.0,12345.0,5860.0,98103.0,0.0,,,,3707.102138397896
203,0.396484375,6,-433.0,0.0,0.0,1093020.0,54438.0,12924.0,43325.0,5257.0,12345.0,5860.0,98103.0,0.0,,,,9669.54086445569
204,0.3984375,6,-413.0,0.0,0.0,1093020.0,54438.0,12924.0,43325.0,5257.0,12345.0,5860.0,98103.0,0.0,,,,2702.9897337414927
205,0.400390625,6,-200.0,0.0,0.0,1093020.0,54438.0,12924.0,43325.0,5257.0,12345.0,5860.0,98103.0,0.0,,,,4359.74585572077
206,0.40234375,6,57.0,0.0,0.0,1093020.0,54438.0,12924.0,43325.0,5257.0,12345.0,5860.0,98103.0,0.0,,,,7534.3373817632655
207,0.404296875,6,275.0,0.0,0.0,1093020.0,54438.0,12924.0,43325.0,5257.0,12345.0,5860.0,98103.0,0.0,,,,4853.742895823622
208,0.40625,6,423.0,0.0,0.0,1093020.0,54438.0,12924.0,43325.0,5257.0,12345.0,5860.0,98103.0,0.0,,,,4554.549214770768
209,0.408203125,6,470.0,0.0,0.0,1093020.0,54438.0,12924.0,43325.0,5257.0,12345.0,5860.0,98103.0,0.0,,,,6320.204574206378
210,0.41015625,6,402.0,0.0,0.0,1093020.0,54438.0,12924.0,43325.0,5257.0,12345.0,5860.0,98103.0,0.0,,,,7113.248092163209
211,0.412109375,6,192.0,0.0,0.0,1093020.0,54438.0,12924.0,43325.0,5257.0,12345.0,5860.0,98103.0,0.0,,,,10299.144662768973
212,0.4140625,6,-122.0,0.0,0.0,1093020.0,54438.0,12924.0,43325.0,5257.0,12345.0,5860.0,98103.0,0.0,,,,4336.423577552148
213,0.416015625,6,-410.0,0.0,0.0,1093020.0,54438.0,12924.0,43325.0,5257.0,12345.0,5860.0,98103.0,0.0,,,,1125.864262872966
214,0.41796875,6,-499.0,0.0,0.0,1093020.0,54438.0,12924.0,43325.0,5257.0,12345.0,5860.0,98103.0,0.0,,,,9837.204746249628
215,0.419921875,6,-363.0,0.0,0.0,1093020.0,54438.0,12924.0,43325.0,5257.0,12345.0,5860.0,98103.0,0.0,,,,5515.498811487346
216,0.421875,6,-117.0,0.0,0.0,1093020.0,54438.0,12924.0,43325.0,5257.0,12345.0,5860.0,98103.0,0.0,,,,4704.259296673624
217,0.423828125,6,144.0,0.0,0.0,1093020.0,54438.0,12924.0,43325.0,5257.0,12345.0,5860.0,98103.0,0.0,,,,3868.1369020664547
218,0.42578125,6,353.0,0.0,0.0,1093020.0,54438.0,12924.0,43325.0,5257.0,12345.0,5860.0,98103.0,0.0,,,,5473.544954466063
219,0.427734375,6,450.0,0.0,0.0,1093020.0,54438.0,12924.0,43325.0,5257.0,12345.0,5860.0,98103.0,0.0,,,,4383.746055679525
220,0.4296875,6,410.0,0.0,0.0,1093020.0,54438.0,12924.0,43325.0,5257.0,12345.0,5860.0,98103.0,0.0,,,,6585.791645198081
221,0.431640625,6,248.0,0.0,0.0,1093020.0,54438.0,12924.0,43325.0,5257.0,12345.0,5860.0,98103.0,0.0,,,,4064.6727444724984
222,0.43359375,6,-34.0,0.0,0.0,1093020.0,54438.0,12924.0,43325.0,5257.0,12345.0,5860.0,98103.0,0.0,,,,1544.027043298329
223,0.435546875,6,-315.0,0.0,0.0,1093020.0,54438.0,12924.0,43325.0,5257.0,12345.0,5860.0,98103.0,0.0,,,,9091.312957245262
224,0.4375,7,-437.0,0.0,0.0,1093020.0,54438.0,12924.0,43325.0,5257.0,12345.0,5860.0,98103.0,0.0,,,,2881.080934454186
225,0.439453125,7,-324.0,0.0,0.0,1093020.0,54438.0,12924.0,43325.0,5257.0,12345.0,5860.0,98103.0,0.0,,,,9180.59126699731
226,0.44140625,7,-60.0,0.0,0.0,1093020.0,54438.0,12924.0,43325.0,5257.0,12345.0,5860.0,98103.0,0.0,,,,2422.1472768983363
227,0.443359375,7,195.0,0.0,0.0,1093020.0,54438.0,12924.0,43325.0,5257.0,12345.0,5860.0,98103.0,0.0,,,,7074.871441349751
228,0.4453125,7,394.0,0.0,0.0,1093020.0,54438.0,12924.0,43325.0,5257.0,12345.0,5860.0,98103.0,0.0,,,,9892.509037059657
229,0.447265625,7,506.0,0.0,0.0,1093020.0,54438.0,12924.0,43325.0,5257.0,12345.0,5860.0,98103.0,0.0,,,,6216.228927239181
230,0.44921875,7,517.0,0.0,0.0,1093020.0,54438.0,12924.0,43325.0,5257.0,12345.0,5860.0,98103.0,0.0,,,,5167.113020519739
231,0.451171875,7,401.0,0.0,0.0,1093020.0,54438.0,12924.0,43325.0,5257.0,12345.0,5860.0,98103.0,0.0,,,,12236.255948305177
232,0.453125,7,122.0,0.0,0.0,1093020.0,54438.0,12924.0,43325.0,5257.0,12345.0,5860.0,98103.0,0.0,,,,8137.991544556787
233,0.455078125,7,-225.0,0.0,0.0,1093020.0,54438.0,12924.0,43325.0,5257.0,12345.0,5860.0,98103.0,0.0,,,,6063.961558553647
234,0.45703125,7,-456.0,0.0,0.0,1093020.0,54438.0,12924.0,43325.0,5257.0,12345.0,5860.0,98103.0,0.0,,,,16090.107072933153
235,0.458984375,7,-421.0,0.0,0.0,1093020.0,54438.0,12924.0,43325.0,5257.0,12345.0,5860.0,98103.0,0.0,,,,8559.456580293167
236,0.4609375,7,-179.0,0.0,0.0,1093020.0,54438.0,12924.0,43325.0,5257.0,12345.0,5860.0,98103.0,0.0,,,,6135.920182996048
237,0.462890625,7,84.0,0.0,0.0,1093020.0,54438.0,12924.0,43325.0,5257.0,12345.0,5860.0,98103.0,0.0,,,,6622.811677143545
238,0.46484375,7,312.0,0.0,0.0,1093020.0,54438.0,12924.0,43325.0,5257.0,12345.0,5860.0,98103.0,0.0,,,,8612.223437223769
239,0.466796875,7,466.0,0.0,0.0,1093020.0,54438.0,12924.0,43325.0,5257.0,12345.0,5860.0,98103.0,0.0,,,,9733.334926255606
240,0.46875,7,501.0,0.0,0.0,1093020.0,54438.0,12924.0,43325.0,5257.0,12345.0,5860.0,98103.0,0.0,,,,15842.041008204758
241,0.470703125,7,419.0,0.0,0.0,1093020.0,54438.0,12924.0,43325.0,5257.0,12345.0,5860.0,98103.0,0.0,,,,5283.950641947453
242,0.47265625,7,194.0,0.0,0.0,1093020.0,54438.0,12924.0,43325.0,5257.0,12345.0,5860.0,98103.0,0.0,,,,10290.702113111185
243,0.474609375,7,-106.0,0.0,0.0,1093020.0,54438.0,12924.0,43325.0,5257.0,12345.0,5860.0,98103.0,0.0,,,,6904.015341135033
244,0.4765625,7,-361.0,0.0,0.0,1093020.0,54438.0,12924.0,43325.0,5257.0,12345.0,5860.0,98103.0,0.0,,,,7897.3714045057695
245,0.478515625,7,-444.0,0.0,0.0,1093020.0,54438.0,12924.0,43325.0,5257.0,12345.0,5860.0,98103.0,0.0,,,,8099.747795499561
246,0.48046875,7,-294.0,0.0,0.0,1093020.0,54438.0,12924.0,43325.0,5257.0,12345.0,5860.0,98103.0,0.0,,,,11186.121643041506
247,0.482421875,7,-29.0,0.0,0.0,1093020.0,54438.0,12924.0,43325.0,5257.0,12345.0,5860.0,98103.0,0.0,,,,8574.833874114394
248,0.484375,7,216.0,0.0,0.0,1093020.0,54438.0,12924.0,43325.0,5257.0,12345.0,5860.0,98103.0,0.0,,,,28492.2950317924
249,0.486328125,7,385.0,0.0,0.0,1093020.0,54438.0,12924.0,43325.0,5257.0,12345.0,5860.0,98103.0,0.0,,,,6253.778061388582
250,0.48828125,7,448.0,0.0,0.0,1093020.0,54438.0,12924.0,43325.0,5257.0,12345.0,5860.0,98103.0,0.0,,,,5220.174957869587
251,0.490234375,7,412.0,0.0,0.0,1093020.0,54438.0,12924.0,43325.0,5257.0,12345.0,5860.0,98103.0,0.0,,,,19415.46879525445
252,0.4921875,7,245.0,0.0,0.0,1093020.0,54438.0,12924.0,43325.0,5257.0,12345.0,5860.0,98103.0,0.0,,,,18426.77868504752
253,0.494140625,7,-52.0,0.0,0.0,1093020.0,54438.0,12924.0,43325.0,5257.0,12345.0,5860.0,98103.0,0.0,,,,13729.456934249882
254,0.49609375,7,-339.0,0.0,0.0,1093020.0,54438.0,12924.0,43325.0,5257.0,12345.0,5860.0,98103.0,0.0,,,,24698.006867688
255,0.498046875,7,-462.0,0.0,0.0,1093020.0,54438.0,12924.0,43325.0,5257.0,12345.0,5860.0,98103.0,0.0,,,,22177.283537230513
256,0.5,8,-365.0,0.0,0.0,1093020.0,54438.0,12924.0,43325.0,5257.0,12345.0,5860.0,98103.0,0.0,,,,13307.028903531469
257,0.501953125,8,-104.0,0.0,0.0,1093020.0,54438.0,12924.0,43325.0,5257.0,12345.0,5860.0,98103.0,0.0,,,,16869.596772629302
258,0.50390625,8,176.0,0.0,0.0,1093020.0,54438.0,12924.0,43325.0,5257.0,12345.0,5860.0,98103.0,0.0,,,,6504.976763757407
259,0.505859375,8,378.0,0.0,0.0,1093020.0,54438.0,12924.0,43325.0,5257.0,12345.0,5860.0,98103.0,0.0,,,,26925.94829807814
260,0.5078125,8,471.0,0.0,0.0,1093020.0,54438.0,12924.0,43325.0,5257.0,12345.0,5860.0,98103.0,0.0,,,,41616.52364994519
261,0.509765625,8,454.0,0.0,0.0,1093020.0,54438.0,12924.0,43325.0,5257.0,12345.0,5860.0,98103.0,0.0,,,,47640.222481250545
262,0.51171875,8,321.0,0.0,0.0,1093020.0,54438.0,12924.0,43325.0,5257.0,12345.0,5860.0,98103.0,0.0,,,,70838.19880318693
263,0.513671875,8,51.0,0.0,0.0,1093020.0,54438.0,12924.0,43325.0,5257.0,12345.0,5860.0,98103.0,0.0,,,,29933.557804180626
264,0.515625,8,-282.0,0.0,0.0,1093020.0,54438.0,12924.0,43325.0,5257.0,12345.0,5860.0,98103.0,0.0,,,,67504.21296531188
265,0.517578125,8,-490.0,0.0,0.0,1093020.0,54438.0,12924.0,43325.0,5257.0,12345.0,5860.0,98103.0,0.0,,,,89542.18534263925
266,0.51953125,8,-440.0,0.0,0.0,1093020.0,54438.0,12924.0,43325.0,5257.0,12345.0,5860.0,98103.0,0.0,,,,122750.56917367109
267,0.521484375,8,-182.0,0.0,0.0,1093020.0,54438.0,12924.0,43325.0,5257.0,12345.0,5860.0,98103.0,0.0,,,,94013.62780709866
268,0.5234375,8,73.0,0.0,0.0,1093020.0,54438.0,12924.0,43325.0,5257.0,12345.0,5860.0,98103.0,0.0,,,,562194.2390714249
269,0.525390625,8,245.0,0.0,0.0,1093020.0,54438.0,12924.0,43325.0,5257.0,12345.0,5860.0,98103.0,0.0,,,,18078.998827376003
270,0.52734375,8,373.0,0.0,0.0,1093020.0,54438.0,12924.0,43325.0,5257.0,12345.0,5860.0,98103.0,0.0,,,,58142.98309469828
271,0.529296875,8,433.0,0.0,0.0,1093020.0,54438.0,12924.0,43325.0,5257.0,12345.0,5860.0,98103.0,0.0,,,,64375.04958941673
272,0.53125,8,384.0,0.0,0.0,1093020.0,54438.0,12924.0,43325.0,5257.0,12345.0,5860.0,98103.0,0.0,,,,32147.807073094973
273,0.533203125,8,192.0,0.0,0.0,1093020.0,54438.0,12924.0,43325.0,5257.0,12345.0,5860.0,98103.0,0.0,,,,31101.46470302921
274,0.53515625,8,-121.0,0.0,0.0,1093020.0,54438.0,12924.0,43325.0,5257.0,12345.0,5860.0,98103.0,0.0,,,,31804.31581589759
275,0.537109375,8,-402.0,0.0,0.0,1093020.0,54438.0,12924.0,43325.0,5257.0,12345.0,5860.0,98103.0,0.0,,,,7751.790944893938
276,0.5390625,8,-453.0,0.0,0.0,1093020.0,54438.0,12924.0,43325.0,5257.0,12345.0,5860.0,98103.0,0.0,,,,31252.72670468647
277,0.541015625,8,-250.0,0.0,0.0,1093020.0,54438.0,12924.0,43325.0,5257.0,12345.0,5860.0,98103.0,0.0,,,,15955.586406872706
278,0.54296875,8,33.0,0.0,0.0,1093020.0,54438.0,12924.0,43325.0,5257.0,12345.0,5860.0,98103.0,0.0,,,,16640.901314863466
279,0.544921875,8,260.0,0.0,0.0,1093020.0,54438.0,12924.0,43325.0,5257.0,12345.0,5860.0,98103.0,0.0,,,,2836.2601754590605
280,0.546875,8,401.0,0.0,0.0,1093020.0,54438.0,12924.0,43325.0,5257.0,12345.0,5860.0,98103.0,0.0,,,,14392.278009576754
281,0.548828125,8,445.0,0.0,0.0,1093020.0,54438.0,12924.0,43325.0,5257.0,12345.0,5860.0,98103.0,0.0,,,,9632.30067236174
282,0.55078125,8,400.0,0.0,0.0,1093020.0,54438.0,12924.0,43325.0,5257.0,12345.0,5860.0,98103.0,0.0,,,,14409.670515869811
283,0.552734375,8,246.0,0.0,0.0,1093020.0,54438.0,12924.0,43325.0,5257.0,12345.0,5860.0,98103.0,0.0,,,,7680.550559602236
284,0.5546875,8,-33.0,0.0,0.0,1093020.0,54438.0,12924.0,43325.0,5257.0,12345.0,5860.0,98103.0,0.0,,,,7186.4510279325805
285,0.556640625,8,-325.0,0.0,0.0,1093020.0,54438.0,12924.0,43325.0,5257.0,12345.0,5860.0,98103.0,0.0,,,,8368.091457821729
286,0.55859375,8,-443.0,0.0,0.0,1093020.0,54438.0,12924.0,43325.0,5257.0,12345.0,5860.0,98103.0,0.0,,,,20576.050880386727
287,0.560546875,8,-337.0,0.0,0.0,1093020.0,54438.0,12924.0,43325.0,5257.0,12345.0,5860.0,98103.0,0.0,,,,6311.313130467538
288,0.5625,9,-82.0,0.0,0.0,1093020.0,54438.0,12924.0,43325.0,5257.0,12345.0,5860.0,98103.0,0.0,,,,12920.173312399113
289,0.564453125,9,189.0,0.0,0.0,1093020.0,54438.0,12924.0,43325.0,5257.0,12345.0,5860.0,98103.0,0.0,,,,8445.890669339238
290,0.56640625,9,388.0,0.0,0.0,1093020.0,54438.0,12924.0,43325.0,5257.0,12345.0,5860.0,98103.0,0.0,,,,1969.7007717826168
291,0.568359375,9,477.0,0.0,0.0,1093020.0,54438.0,12924.0,43325.0,5257.0,12345.0,5860.0,98103.0,0.0,,,,9310.364420025862
292,0.5703125,9,457.0,0.0,0.0,1093020.0,54438.0,12924.0,43325.0,5257.0,12345.0,5860.0,98103.0,0.0,,,,4791.339275205013
293,0.572265625,9,314.0,0.0,0.0,1093020.0,54438.0,12924.0,43325.0,5257.0,12345.0,5860.0,98103.0,0.0,,,,8683.507142096609
294,0.57421875,9,34.0,0.0,0.0,1093020.0,54438.0,12924.0,43325.0,5257.0,12345.0,5860.0,98103.0,0.0,,,,6657.423455614104
295,0.576171875,9,-283.0,0.0,0.0,1093020.0,54438.0,12924.0,43325.0,5257.0,12345.0,5860.0,98103.0,0.0,,,,6131.381883308371
296,0.578125,9,-477.0,0.0,0.0,1093020.0,54438.0,12924.0,43325.0,5257.0,12345.0,5860.0,98103.0,0.0,,,,8945.452343699142
297,0.580078125,9,-429.0,0.0,0.0,1093020.0,54438.0,12924.0,43325.0,5257.0,12345.0,5860.0,98103.0,0.0,,,,2765.874015968459
298,0.58203125,9,-214.0,0.0,0.0,1093020.0,54438.0,12924.0,43325.0,5257.0,12345.0,5860.0,98103.0,0.0,,,,4632.93494543527
299,0.583984375,9,10.0,0.0,0.0,1093020.0,54438.0,12924.0,43325.0,5257.0,12345.0,5860.0,98103.0,0.0,,,,4935.770518113724
300,0.5859375,9,183.0,0.0,0.0,1093020.0,54438.0,12924.0,43325.0,5257.0,12345.0,5860.0,98103.0,0.0,,,,8181.2117915194185
301,0.587890625,9,312.0,0.0,0.0,1093020.0,54438.0,12924.0,43325.0,5257.0,12345.0,5860.0,98103.0,0.0,,,,3619.2828073991386
302,0.58984375,9,390.0,0.0,0.0,1093020.0,54438.0,12924.0,43325.0,5257.0,12345.0,5860.0,98103.0,0.0,,,,4615.796012217364
303,0.591796875,9,331.0,0.0,0.0,1093020.0,54438.0,12924.0,43325.0,5257.0,12345.0,5860.0,98103.0,0.0,,,,3825.3376209723533
304,0.59375,9,89.0,0.0,0.0,1093020.0,54438.0,12924.0,43325.0,5257.0,12345.0,5860.0,98103.0,0.0,,,,3754.355884301205
305,0.595703125,9,-243.0,0.0,0.0,1093020.0,54438.0,12924.0,43325.0,5257.0,12345.0,5860.0,98103.0,0.0,,,,5562.659000090105
306,0.59765625,9,-486.0,0.0,0.0,1093020.0,54438.0,12924.0,43325.0,5257.0,12345.0,5860.0,98103.0,0.0,,,,12270.189365843393
307,0.599609375,9,-491.0,0.0,0.0,1093020.0,54438.0,12924.0,43325.0,5257.0,12345.0,5860.0,98103.0,0.0,,,,4986.528017406148
308,0.6015625,9,-279.0,0.0,0.0,1093020.0,54438.0,12924.0,43325.0,5257.0,12345.0,5860.0,98103.0,0.0,,,,1771.8800317882155
309,0.603515625,9,-5.0,0.0,0.0,1093020.0,54438.0,12924.0,43325.0,5257.0,12345.0,5860.0,98103.0,0.0,,,,3126.386600980125
310,0.60546875,9,224.0,0.0,0.0,1093020.0,54438.0,12924.0,43325.0,5257.0,12345.0,5860.0,98103.0,0.0,,,,3165.8536034422364
311,0.607421875,9,405.0,0.0,0.0,1093020.0,54438.0,12924.0,43325.0,5257.0,12345.0,5860.0,98103.0,0.0,,,,3775.4188654359177
312,0.609375,9,485.0,0.0,0.0,1093020.0,54438.0,12924.0,43325.0,5257.0,12345.0,5860.0,98103.0,0.0,,,,5238.088065746965
313,0.611328125,9,452.0,0.0,0.0,1093020.0,54438.0,12924.0,43325.0,5257.0,12345.0,5860.0,98103.0,0.0,,,,1111.3504944569813
314,0.61328125,9,274.0,0.0,0.0,1093020.0,54438.0,12924.0,43325.0,5257.0,12345.0,5860.0,98103.0,0.0,,,,7983.706481235037
315,0.615234375,9,-36.0,0.0,0.0,1093020.0,54438.0,12924.0,43325.0,5257.0,12345.0,5860.0,98103.0,0.0,,,,2004.3124250978358
316,0.6171875,9,-331.0,0.0,0.0,1093020.0,54438.0,12924.0,43325.0,5257.0,12345.0,5860.0,98103.0,0.0,,,,1380.0341158944038
317,0.619140625,9,-451.0,0.0,0.0,1093020.0,54438.0,12924.0,43325.0,5257.0,12345.0,5860.0,98103.0,0.0,,,,1260.4672355532355
318,0.62109375,9,-317.0,0.0,0.0,1093020.0,54438.0,12924.0,43325.0,5257.0,12345.0,5860.0,98103.0,0.0,,,,3310.7572937990544
319,0.623046875,9,-65.0,0.0,0.0,1093020.0,54438.0,12924.0,43325.0,5257.0,12345.0,5860.0,98103.0,0.0,,,,2532.5335447250322
320,0.625,10,184.0,0.0,0.0,1093020.0,54438.0,12924.0,43325.0,5257.0,12345.0,5860.0,98103.0,0.0,,,,6877.800818502678
321,0.626953125,10,381.0,0.0,0.0,1093020.0,54438.0,12924.0,43325.0,5257.0,12345.0,5860.0,98103.0,0.0,,,,1363.3390323503286
322,0.62890625,10,475.0,0.0,0.0,1093020.0,54438.0,12924.0,43325.0,5257.0,12345.0,5860.0,98103.0,0.0,,,,1954.4755276290211
323,0.630859375,10,452.0,0.0,0.0,1093020.0,54438.0,12924.0,43325.0,5257.0,12345.0,5860.0,98103.0,0.0,,,,3707.103979590456
324,0.6328125,10,312.0,0.0,0.0,1093020.0,54438.0,12924.0,43325.0,5257.0,12345.0,5860.0,98103.0,0.0,,,,2855.5975403942516
325,0.634765625,10,29.0,0.0,0.0,1093020.0,54438.0,12924.0,43325.0,5257.0,12345.0,5860.0,98103.0,0.0,,,,5108.508697856617
326,0.63671875,10,-283.0,0.0,0.0,1093020.0,54438.0,12924.0,43325.0,5257.0,12345.0,5860.0,98103.0,0.0,,,,4244.748745575252
327,0.638671875,10,-461.0,0.0,0.0,1093020.0,54438.0,12924.0,43325.0,5257.0,12345.0,5860.0,98103.0,0.0,,,,3582.209801347677
328,0.640625,10,-392.0,0.0,0.0,1093020.0,54438.0,12924.0,43325.0,5257.0,12345.0,5860.0,98103.0,0.0,,,,1921.045848020151
329,0.642578125,10,-135.0,0.0,0.0,1093020.0,54438.0,12924.0,43325.0,5257.0,12345.0,5860.0,98103.0,0.0,,,,398.48475162560266
330,0.64453125,10,121.0,0.0,0.0,1093020.0,54438.0,12924.0,43325.0,5257.0,12345.0,5860.0,98103.0,0.0,,,,2306.2460433529423
331,0.646484375,10,304.0,0.0,0.0,1093020.0,54438.0,12924.0,43325.0,5257.0,12345.0,5860.0,98103.0,0.0,,,,3902.6198291606356
332,0.6484375,10,404.0,0.0,0.0,1093020.0,54438.0,12924.0,43325.0,5257.0,12345.0,5860.0,98103.0,0.0,,,,3743.901400577118
333,0.650390625,10,423.0,0.0,0.0,1093020.0,54438.0,12924.0,43325.0,5257.0,12345.0,5860.0,98103.0,0.0,,,,4719.393712691129
334,0.65234375,10,330.0,0.0,0.0,1093020.0,54438.0,12924.0,43325.0,5257.0,12345.0,5860.0,98103.0,0.0,,,,3355.218285105208
335,0.654296875,10,86.0,0.0,0.0,1093020.0,54438.0,12924.0,43325.0,5257.0,12345.0,5860.0,98103.0,0.0,,,,3466.656924128037
336,0.65625,10,-230.0,0.0,0.0,1093020.0,54438.0,12924.0,43325.0,5257.0,12345.0,5860.0,98103.0,0.0,,,,2223.0302099329037
337,0.658203125,10,-456.0,0.0,0.0,1093020.0,54438.0,12924.0,43325.0,5257.0,12345.0,5860.0,98103.0,0.0,,,,2705.8358731301305
338,0.66015625,10,-450.0,0.0,0.0,1093020.0,54438.0,12924.0,43325.0,5257.0,12345.0,5860.0,98103.0,0.0,,,,4854.479499568892
339,0.662109375,10,-237.0,0.0,0.0,1093020.0,54438.0,12924.0,43325.0,5257.0,12345.0,5860.0,98103.0,0.0,,,,3671.282748724318
340,0.6640625,10,18.0,0.0,0.0,1093020.0,54438.0,12924.0,43325.0,5257.0,12345.0,5860.0,98103.0,0.0,,,,5476.380902920902
341,0.666015625,10,231.0,0.0,0.0,1093020.0,54438.0,12924.0,43325.0,5257.0,12345.0,5860.0,98103.0,0.0,,,,436.29659600117327
342,0.66796875,10,397.0,0.0,0.0,1093020.0,54438.0,12924.0,43325.0,5257.0,12345.0,5860.0,98103.0,0.0,,,,2813.8784851121895
343,0.669921875,10,476.0,0.0,0.0,1093020.0,54438.0,12924.0,43325.0,5257.0,12345.0,5860.0,98103.0,0.0,,,,1767.2236595616173
344,0.671875,10,425.0,0.0,0.0,1093020.0,54438.0,12924.0,43325.0,5257.0,12345.0,5860.0,98103.0,0.0,,,,4636.083567736156
345,0.673828125,10,204.0,0.0,0.0,1093020.0,54438.0,12924.0,43325.0,5257.0,12345.0,5860.0,98103.0,0.0,,,,4226.821955845357
346,0.67578125,10,-136.0,0.0,0.0,1093020.0,54438.0,12924.0,43325.0,5257.0,12345.0,5860.0,98103.0,0.0,,,,2467.4864823094454
347,0.677734375,10,-407.0,0.0,0.0,1093020.0,54438.0,12924.0,43325.0,5257.0,12345.0,5860.0,98103.0,0.0,,,,1762.964031483787
348,0.6796875,10,-465.0,0.0,0.0,1093020.0,54438.0,12924.0,43325.0,5257.0,12345.0,5860.0,98103.0,0.0,,,,5232.959816501175
349,0.681640625,10,-310.0,0.0,0.0,1093020.0,54438.0,12924.0,43325.0,5257.0,12345.0,5860.0,98103.0,0.0,,,,1809.3560488744406
350,0.68359375,10,-58.0,0.0,0.0,1093020.0,54438.0,12924.0,43325.0,5257.0,12345.0,5860.0,98103.0,0.0,,,,2867.4936812538267
351,0.685546875,10,180.0,0.0,0.0,1093020.0,54438.0,12924.0,43325.0,5257.0,12345.0,5860.0,98103.0,0.0,,,,6907.332905887511
352,0.6875,11,371.0,0.0,0.0,1093020.0,54438.0,12924.0,43325.0,5257.0,12345.0,5860.0,98103.0,0.0,,,,3396.563906652425
353,0.689453125,11,466.0,0.0,0.0,1093020.0,54438.0,12924.0,43325.0,5257.0,12345.0,5860.0,98103.0,0.0,,,,910.391489662803
354,0.69140625,11,440.0,0.0,0.0,1093020.0,54438.0,12924.0,43325.0,5257.0,12345.0,5860.0,98103.0,0.0,,,,3725.3788855786925
355,0.693359375,11,269.0,0.0,0.0,1093020.0,54438.0,12924.0,43325.0,5257.0,12345.0,5860.0,98103.0,0.0,,,,1756.3371894758066
356,0.6953125,11,-22.0,0.0,0.0,1093020.0,54438.0,12924.0,43325.0,5257.0,12345.0,5860.0,98103.0,0.0,,,,3173.825568200355
357,0.697265625,11,-334.0,0.0,0.0,1093020.0,54438.0,12924.0,43325.0,5257.0,12345.0,5860.0,98103.0,0.0,,,,2759.778781407827
358,0.69921875,11,-481.0,0.0,0.0,1093020.0,54438.0,12924.0,43325.0,5257.0,12345.0,5860.0,98103.0,0.0,,,,2319.040131837085
359,0.701171875,11,-376.0,0.0,0.0,1093020.0,54438.0,12924.0,43325.0,5257.0,12345.0,5860.0,98103.0,0.0,,,,2024.7917438036918
360,0.703125,11,-131.0,0.0,0.0,1093020.0,54438.0,12924.0,43325.0,5257.0,12345.0,5860.0,98103.0,0.0,,,,4196.014773173282
361,0.705078125,11,113.0,0.0,0.0,1093020.0,54438.0,12924.0,43325.0,5257.0,12345.0,5860.0,98103.0,0.0,,,,3719.1326880527554
362,0.70703125,11,299.0,0.0,0.0,1093020.0,54438.0,12924.0,43325.0,5257.0,12345.0,5860.0,98103.0,0.0,,,,3362.724409124
363,0.708984375,11,406.0,0.0,0.0,1093020.0,54438.0,12924.0,43325.0,5257.0,12345.0,5860.0,98103.0,0.0,,,,3566.355429132231
364,0.7109375,11,428.0,0.0,0.0,1093020.0,54438.0,12924.0,43325.0,5257.0,12345.0,5860.0,98103.0,0.0,,,,3705.170173806611
365,0.712890625,11,347.0,0.0,0.0,1093020.0,54438.0,12924.0,43325.0,5257.0,12345.0,5860.0,98103.0,0.0,,,,2643.8812701707543
366,0.71484375,11,116.0,0.0,0.0,1093020.0,54438.0,12924.0,43325.0,5257.0,12345.0,5860.0,98103.0,0.0,,,,3384.1466241641538
367,0.716796875,11,-205.0,0.0,0.0,1093020.0,54438.0,12924.0,43325.0,5257.0,12345.0,5860.0,98103.0,0.0,,,,1732.8647189137264
368,0.71875,11,-439.0,0.0,0.0,1093020.0,54438.0,12924.0,43325.0,5257.0,12345.0,5860.0,98103.0,0.0,,,,4537.314350601261
369,0.720703125,11,-420.0,0.0,0.0,1093020.0,54438.0,12924.0,43325.0,5257.0,12345.0,5860.0,98103.0,0.0,,,,1779.4510718391182
370,0.72265625,11,-171.0,0.0,0.0,1093020.0,54438.0,12924.0,43325.0,5257.0,12345.0,5860.0,98103.0,0.0,,,,1613.5226722624536
371,0.724609375,11,114.0,0.0,0.0,1093020.0,54438.0,12924.0,43325.0,5257.0,12345.0,5860.0,98103.0,0.0,,,,3297.5262900172706
372,0.7265625,11,327.0,0.0,0.0,1093020.0,54438.0,12924.0,43325.0,5257.0,12345.0,5860.0,98103.0,0.0,,,,6125.056095785922
373,0.728515625,11,456.0,0.0,0.0,1093020.0,54438.0,12924.0,43325.0,5257.0,12345.0,5860.0,98103.0,0.0,,,,1340.6247340182913
374,0.73046875,11,517.0,0.0,0.0,1093020.0,54438.0,12924.0,43325.0,5257.0,12345.0,5860.0,98103.0,0.0,,,,2478.7454623287276
375,0.732421875,11,459.0,0.0,0.0,1093020.0,54438.0,12924.0,43325.0,5257.0,12345.0,5860.0,98103.0,0.0,,,,558.8466954656703
376,0.734375,11,218.0,0.0,0.0,1093020.0,54438.0,12924.0,43325.0,5257.0,12345.0,5860.0,98103.0,0.0,,,,3739.4822327343704
377,0.736328125,11,-130.0,0.0,0.0,1093020.0,54438.0,12924.0,43325.0,5257.0,12345.0,5860.0,98103.0,0.0,,,,0.0
378,0.73828125,11,-391.0,0.0,0.0,1093020.0,54438.0,12924.0,43325.0,5257.0,12345.0,5860.0,98103.0,0.0,,,,0.0
379,0.740234375,11,-433.0,0.0,0.0,1093020.0,54438.0,12924.0,43325.0,5257.0,12345.0,5860.0,98103.0,0.0,,,,0.0
380,0.7421875,11,-284.0,0.0,0.0,1093020.0,54438.0,12924.0,43325.0,5257.0,12345.0,5860.0,98103.0,0.0,,,,0.0
381,0.744140625,11,-50.0,0.0,0.0,1093020.0,54438.0,12924.0,43325.0,5257.0,12345.0,5860.0,98103.0,0.0,,,,0.0
382,0.74609375,11,189.0,0.0,0.0,1093020.0,54438.0,12924.0,43325.0,5257.0,12345.0,5860.0,98103.0,0.0,,,,0.0
383,0.748046875,11,390.0,0.0,0.0,1093020.0,54438.0,12924.0,43325.0,5257.0,12345.0,5860.0,98103.0,0.0,,,,0.0
384,0.75,12,491.0,0.0,0.0,1093020.0,54438.0,12924.0,43325.0,5257.0,12345.0,5860.0,98103.0,0.0,,,,0.0
385,0.751953125,12,450.0,0.0,0.0,1093020.0,54438.0,12924.0,43325.0,5257.0,12345.0,5860.0,98103.0,0.0,,,,0.0
386,0.75390625,12,261.0,0.0,0.0,1093020.0,54438.0,12924.0,43325.0,5257.0,12345.0,5860.0,98103.0,0.0,,,,0.0
387,0.755859375,12,-12.0,0.0,0.0,1093020.0,54438.0,12924.0,43325.0,5257.0,12345.0,5860.0,98103.0,0.0,,,,0.0
388,0.7578125,12,-278.0,0.0,0.0,1093020.0,54438.0,12924.0,43325.0,5257.0,12345.0,5860.0,98103.0,0.0,,,,0.0
389,0.759765625,12,-412.0,0.0,0.0,1093020.0,54438.0,12924.0,43325.0,5257.0,12345.0,5860.0,98103.0,0.0,,,,0.0
390,0.76171875,12,-331.0,0.0,0.0,1093020.0,54438.0,12924.0,43325.0,5257.0,12345.0,5860.0,98103.0,0.0,,,,0.0
391,0.763671875,12,-93.0,0.0,0.0,1093020.0,54438.0,12924.0,43325.0,5257.0,12345.0,5860.0,98103.0,0.0,,,,0.0
392,0.765625,12,155.0,0.0,0.0,1093020.0,54438.0,12924.0,43325.0,5257.0,12345.0,5860.0,98103.0,0.0,,,,0.0
393,0.767578125,12,347.0,0.0,0.0,1093020.0,54438.0,12924.0,43325.0,5257.0,12345.0,5860.0,98103.0,0.0,,,,0.0
394,0.76953125,12,452.0,0.0,0.0,1093020.0,54438.0,12924.0,43325.0,5257.0,12345.0,5860.0,98103.0,0.0,,,,0.0
395,0.771484375,12,442.0,0.0,0.0,1093020.0,54438.0,12924.0,43325.0,5257.0,12345.0,5860.0,98103.0,0.0,,,,0.0
396,0.7734375,12,323.0,0.0,0.0,1093020.0,54438.0,12924.0,43325.0,5257.0,12345.0,5860.0,98103.0,0.0,,,,0.0
397,0.775390625,12,65.0,0.0,0.0,1093020.0,54438.0,12924.0,43325.0,5257.0,12345.0,5860.0,98103.0,0.0,,,,0.0
398,0.77734375,12,-266.0,0.0,0.0,1093020.0,54438.0,12924.0,43325.0,5257.0,12345.0,5860.0,98103.0,0.0,,,,0.0
399,0.779296875,12,-500.0,0.0,0.0,1093020.0,54438.0,12924.0,43325.0,5257.0,12345.0,5860.0,98103.0,0.0,,,,0.0
400,0.78125,12,-467.0,0.0,0.0,1093020.0,54438.0,12924.0,43325.0,5257.0,12345.0,5860.0,98103.0,0.0,,,,0.0
401,0.783203125,12,-221.0,0.0,0.0,1093020.0,54438.0,12924.0,43325.0,5257.0,12345.0,5860.0,98103.0,0.0,,,,0.0
402,0.78515625,12,51.0,0.0,0.0,1093020.0,54438.0,12924.0,43325.0,5257.0,12345.0,5860.0,98103.0,0.0,,,,0.0
403,0.787109375,12,262.0,0.0,0.0,1093020.0,54438.0,12924.0,43325.0,5257.0,12345.0,5860.0,98103.0,0.0,,,,0.0
404,0.7890625,12,389.0,0.0,0.0,1093020.0,54438.0,12924.0,43325.0,5257.0,12345.0,5860.0,98103.0,0.0,,,,0.0
405,0.791015625,12,427.0,0.0,0.0,1093020.0,54438.0,12924.0,43325.0,5257.0,12345.0,5860.0,98103.0,0.0,,,,0.0
406,0.79296875,12,355.0,0.0,0.0,1093020.0,54438.0,12924.0,43325.0,5257.0,12345.0,5860.0,98103.0,0.0,,,,0.0
407,0.794921875,12,138.0,0.0,0.0,1093020.0,54438.0,12924.0,43325.0,5257.0,12345.0,5860.0,98103.0,0.0,,,,0.0
408,0.796875,12,-161.0,0.0,0.0,1093020.0,54438.0,12924.0,43325.0,5257.0,12345.0,5860.0,98103.0,0.0,,,,0.0
409,0.798828125,12,-408.0,0.0,0.0,1093020.0,54438.0,12924.0,43325.0,5257.0,12345.0,5860.0,98103.0,0.0,,,,0.0
410,0.80078125,12,-446.0,0.0,0.0,1093020.0,54438.0,12924.0,43325.0,5257.0,12345.0,5860.0,98103.0,0.0,,,,0.0
411,0.802734375,12,-265.0,0.0,0.0,1093020.0,54438.0,12924.0,43325.0,5257.0,12345.0,5860.0,98103.0,0.0,,,,0.0
412,0.8046875,12,-7.0,0.0,0.0,1093020.0,54438.0,12924.0,43325.0,5257.0,12345.0,5860.0,98103.0,0.0,,,,0.0
413,0.806640625,12,211.0,0.0,0.0,1093020.0,54438.0,12924.0,43325.0,5257.0,12345.0,5860.0,98103.0,0.0,,,,0.0
414,0.80859375,12,371.0,0.0,0.0,1093020.0,54438.0,12924.0,43325.0,5257.0,12345.0,5860.0,98103.0,0.0,,,,0.0
415,0.810546875,12,452.0,0.0,0.0,1093020.0,54438.0,12924.0,43325.0,5257.0,12345.0,5860.0,98103.0,0.0,,,,0.0
416,0.8125,13,417.0,0.0,0.0,1093020.0,54438.0,12924.0,43325.0,5257.0,12345.0,5860.0,98103.0,0.0,,,,0.0
417,0.814453125,13,225.0,0.0,0.0,1093020.0,54438.0,12924.0,43325.0,5257.0,12345.0,5860.0,98103.0,0.0,,,,0.0
418,0.81640625,13,-86.0,0.0,0.0,1093020.0,54438.0,12924.0,43325.0,5257.0,12345.0,5860.0,98103.0,0.0,,,,0.0
419,0.818359375,13,-378.0,0.0,0.0,1093020.0,54438.0,12924.0,43325.0,5257.0,12345.0,5860.0,98103.0,0.0,,,,0.0
420,0.8203125,13,-492.0,0.0,0.0,1093020.0,54438.0,12924.0,43325.0,5257.0,12345.0,5860.0,98103.0,0.0,,,,0.0
421,0.822265625,13,-361.0,0.0,0.0,1093020.0,54438.0,12924.0,43325.0,5257.0,12345.0,5860.0,98103.0,0.0,,,,0.0
422,0.82421875,13,-116.0,0.0,0.0,1093020.0,54438.0,12924.0,43325.0,5257.0,12345.0,5860.0,98103.0,0.0,,,,0.0
423,0.826171875,13,129.0,0.0,0.0,1093020.0,54438.0,12924.0,43325.0,5257.0,12345.0,5860.0,98103.0,0.0,,,,0.0
424,0.828125,13,314.0,0.0,0.0,1093020.0,54438.0,12924.0,43325.0,5257.0,12345.0,5860.0,98103.0,0.0,,,,0.0
425,0.830078125,13,409.0,0.0,0.0,1093020.0,54438.0,12924.0,43325.0,5257.0,12345.0,5860.0,98103.0,0.0,,,,0.0
426,0.83203125,13,406.0,0.0,0.0,1093020.0,54438.0,12924.0,43325.0,5257.0,12345.0,5860.0,98103.0,0.0,,,,0.0
427,0.833984375,13,283.0,0.0,0.0,1093020.0,54438.0,12924.0,43325.0,5257.0,12345.0,5860.0,98103.0,0.0,,,,0.0
428,0.8359375,13,20.0,0.0,0.0,1093020.0,54438.0,12924.0,43325.0,5257.0,12345.0,5860.0,98103.0,0.0,,,,0.0
429,0.837890625,13,-298.0,0.0,0.0,1093020.0,54438.0,12924.0,43325.0,5257.0,12345.0,5860.0,98103.0,0.0,,,,0.0
430,0.83984375,13,-489.0,0.0,0.0,1093020.0,54438.0,12924.0,43325.0,5257.0,12345.0,5860.0,98103.0,0.0,,,,0.0
431,0.841796875,13,-425.0,0.0,0.0,1093020.0,54438.0,12924.0,43325.0,5257.0,12345.0,5860.0,98103.0,0.0,,,,0.0
432,0.84375,13,-179.0,0.0,0.0,1093020.0,54438.0,12924.0,43325.0,5257.0,12345.0,5860.0,98103.0,0.0,,,,0.0
433,0.845703125,13,80.0,0.0,0.0,1093020.0,54438.0,12924.0,43325.0,5257.0,12345.0,5860.0,98103.0,0.0,,,,0.0
434,0.84765625,13,298.0,0.0,0.0,1093020.0,54438.0,12924.0,43325.0,5257.0,12345.0,5860.0,98103.0,0.0,,,,0.0
435,0.849609375,13,427.0,0.0,0.0,1093020.0,54438.0,12924.0,43325.0,5257.0,12345.0,5860.0,98103.0,0.0,,,,0.0
436,0.8515625,13,440.0,0.0,0.0,1093020.0,54438.0,12924.0,43325.0,5257.0,12345.0,5860.0,98103.0,0.0,,,,0.0
437,0.853515625,13,347.0,0.0,0.0,1093020.0,54438.0,12924.0,43325.0,5257.0,12345.0,5860.0,98103.0,0.0,,,,0.0
438,0.85546875,13,103.0,0.0,0.0,1093020.0,54438.0,12924.0,43325.0,5257.0,12345.0,5860.0,98103.0,0.0,,,,0.0
439,0.857421875,13,-231.0,0.0,0.0,1093020.0,54438.0,12924.0,43325.0,5257.0,12345.0,5860.0,98103.0,0.0,,,,0.0
440,0.859375,13,-474.0,0.0,0.0,1093020.0,54438.0,12924.0,43325.0,5257.0,12345.0,5860.0,98103.0,0.0,,,,0.0
441,0.861328125,13,-477.0,0.0,0.0,1093020.0,54438.0,12924.0,43325.0,5257.0,12345.0,5860.0,98103.0,0.0,,,,0.0
442,0.86328125,13,-262.0,0.0,0.0,1093020.0,54438.0,12924.0,43325.0,5257.0,12345.0,5860.0,98103.0,0.0,,,,0.0
443,0.865234375,13,23.0,0.0,0.0,1093020.0,54438.0,12924.0,43325.0,5257.0,12345.0,5860.0,98103.0,0.0,,,,0.0
444,0.8671875,13,253.0,0.0,0.0,1093020.0,54438.0,12924.0,43325.0,5257.0,12345.0,5860.0,98103.0,0.0,,,,0.0
445,0.869140625,13,401.0,0.0,0.0,1093020.0,54438.0,12924.0,43325.0,5257.0,12345.0,5860.0,98103.0,0.0,,,,0.0
446,0.87109375,13,468.0,0.0,0.0,1093020.0,54438.0,12924.0,43325.0,5257.0,12345.0,5860.0,98103.0,0.0,,,,0.0
447,0.873046875,13,439.0,0.0,0.0,1093020.0,54438.0,12924.0,43325.0,5257.0,12345.0,5860.0,98103.0,0.0,,,,0.0
448,0.875,14,258.0,0.0,0.0,1093020.0,54438.0,12924.0,43325.0,5257.0,12345.0,5860.0,98103.0,0.0,,,,0.0
449,0.876953125,14,-44.0,0.0,0.0,1093020.0,54438.0,12924.0,43325.0,5257.0,12345.0,5860.0,98103.0,0.0,,,,0.0
450,0.87890625,14,-338.0,0.0,0.0,1093020.0,54438.0,12924.0,43325.0,5257.0,12345.0,5860.0,98103.0,0.0,,,,0.0
451,0.880859375,14,-456.0,0.0,0.0,1093020.0,54438.0,12924.0,43325.0,5257.0,12345.0,5860.0,98103.0,0.0,,,,0.0
452,0.8828125,14,-347.0,0.0,0.0,1093020.0,54438.0,12924.0,43325.0,5257.0,12345.0,5860.0,98103.0,0.0,,,,0.0
453,0.884765625,14,-97.0,0.0,0.0,1093020.0,54438.0,12924.0,43325.0,5257.0,12345.0,5860.0,98103.0,0.0,,,,0.0
454,0.88671875,14,155.0,0.0,0.0,1093020.0,54438.0,12924.0,43325.0,5257.0,12345.0,5860.0,98103.0,0.0,,,,0.0
455,0.888671875,14,365.0,0.0,0.0,1093020.0,54438.0,12924.0,43325.0,5257.0,12345.0,5860.0,98103.0,0.0,,,,0.0
456,0.890625,14,489.0,0.0,0.0,1093020.0,54438.0,12924.0,43325.0,5257.0,12345.0,5860.0,98103.0,0.0,,,,0.0
457,0.892578125,14,470.0,0.0,0.0,1093020.0,54438.0,12924.0,43325.0,5257.0,12345.0,5860.0,98103.0,0.0,,,,0.0
458,0.89453125,14,300.0,0.0,0.0,1093020.0,54438.0,12924.0,43325.0,5257.0,12345.0,5860.0,98103.0,0.0,,,,0.0
459,0.896484375,14,11.0,0.0,0.0,1093020.0,54438.0,12924.0,43325.0,5257.0,12345.0,5860.0,98103.0,0.0,,,,0.0
460,0.8984375,14,-295.0,0.0,0.0,1093020.0,54438.0,12924.0,43325.0,5257.0,12345.0,5860.0,98103.0,0.0,,,,0.0
461,0.900390625,14,-460.0,0.0,0.0,1093020.0,54438.0,12924.0,43325.0,5257.0,12345.0,5860.0,98103.0,0.0,,,,0.0
462,0.90234375,14,-382.0,0.0,0.0,1093020.0,54438.0,12924.0,43325.0,5257.0,12345.0,5860.0,98103.0,0.0,,,,0.0
463,0.904296875,14,-132.0,0.0,0.0,1093020.0,54438.0,12924.0,43325.0,5257.0,12345.0,5860.0,98103.0,0.0,,,,0.0
464,0.90625,14,125.0,0.0,0.0,1093020.0,54438.0,12924.0,43325.0,5257.0,12345.0,5860.0,98103.0,0.0,,,,0.0
465,0.908203125,14,323.0,0.0,0.0,1093020.0,54438.0,12924.0,43325.0,5257.0,12345.0,5860.0,98103.0,0.0,,,,0.0
466,0.91015625,14,435.0,0.0,0.0,1093020.0,54438.0,12924.0,43325.0,5257.0,12345.0,5860.0,98103.0,0.0,,,,0.0
467,0.912109375,14,454.0,0.0,0.0,1093020.0,54438.0,12924.0,43325.0,5257.0,12345.0,5860.0,98103.0,0.0,,,,0.0
468,0.9140625,14,377.0,0.0,0.0,1093020.0,54438.0,12924.0,43325.0,5257.0,12345.0,5860.0,98103.0,0.0,,,,0.0
469,0.916015625,14,141.0,0.0,0.0,1093020.0,54438.0,12924.0,43325.0,5257.0,12345.0,5860.0,98103.0,0.0,,,,0.0
470,0.91796875,14,-185.0,0.0,0.0,1093020.0,54438.0,12924.0,43325.0,5257.0,12345.0,5860.0,98103.0,0.0,,,,0.0
471,0.919921875,14,-410.0,0.0,0.0,1093020.0,54438.0,12924.0,43325.0,5257.0,12345.0,5860.0,98103.0,0.0,,,,0.0
472,0.921875,14,-381.0,0.0,0.0,1093020.0,54438.0,12924.0,43325.0,5257.0,12345.0,5860.0,98103.0,0.0,,,,0.0
473,0.923828125,14,-152.0,0.0,0.0,1093020.0,54438.0,12924.0,43325.0,5257.0,12345.0,5860.0,98103.0,0.0,,,,0.0
474,0.92578125,14,105.0,0.0,0.0,1093020.0,54438.0,12924.0,43325.0,5257.0,12345.0,5860.0,98103.0,0.0,,,,0.0
475,0.927734375,14,310.0,0.0,0.0,1093020.0,54438.0,12924.0,43325.0,5257.0,12345.0,5860.0,98103.0,0.0,,,,0.0
476,0.9296875,14,429.0,0.0,0.0,1093020.0,54438.0,12924.0,43325.0,5257.0,12345.0,5860.0,98103.0,0.0,,,,0.0
477,0.931640625,14,483.0,0.0,0.0,1093020.0,54438.0,12924.0,43325.0,5257.0,12345.0,5860.0,98103.0,0.0,,,,0.0
478,0.93359375,14,456.0,0.0,0.0,1093020.0,54438.0,12924.0,43325.0,5257.0,12345.0,5860.0,98103.0,0.0,,,,0.0
479,0.935546875,14,275.0,0.0,0.0,1093020.0,54438.0,12924.0,43325.0,5257.0,12345.0,5860.0,98103.0,0.0,,,,0.0
480,0.9375,15,-58.0,0.0,0.0,1093020.0,54438.0,12924.0,43325.0,5257.0,12345.0,5860.0,98103.0,0.0,,,,0.0
481,0.939453125,15,-364.0,0.0,0.0,1093020.0,54438.0,12924.0,43325.0,5257.0,12345.0,5860.0,98103.0,0.0,,,,0.0
482,0.94140625,15,-449.0,0.0,0.0,1093020.0,54438.0,12924.0,43325.0,5257.0,12345.0,5860.0,98103.0,0.0,,,,0.0
483,0.943359375,15,-281.0,0.0,0.0,1093020.0,54438.0,12924.0,43325.0,5257.0,12345.0,5860.0,98103.0,0.0,,,,0.0
484,0.9453125,15,-12.0,0.0,0.0,1093020.0,54438.0,12924.0,43325.0,5257.0,12345.0,5860.0,98103.0,0.0,,,,0.0
485,0.947265625,15,230.0,0.0,0.0,1093020.0,54438.0,12924.0,43325.0,5257.0,12345.0,5860.0,98103.0,0.0,,,,0.0
486,0.94921875,15,408.0,0.0,0.0,1093020.0,54438.0,12924.0,43325.0,5257.0,12345.0,5860.0,98103.0,0.0,,,,0.0
487,0.951171875,15,499.0,0.0,0.0,1093020.0,54438.0,12924.0,43325.0,5257.0,12345.0,5860.0,98103.0,0.0,,,,0.0
488,0.953125,15,480.0,0.0,0.0,1093020.0,54438.0,12924.0,43325.0,5257.0,12345.0,5860.0,98103.0,0.0,,,,0.0
489,0.955078125,15,310.0,0.0,0.0,1093020.0,54438.0,12924.0,43325.0,5257.0,12345.0,5860.0,98103.0,0.0,,,,0.0
490,0.95703125,15,-7.0,0.0,0.0,1093020.0,54438.0,12924.0,43325.0,5257.0,12345.0,5860.0,98103.0,0.0,,,,0.0
491,0.958984375,15,-321.0,0.0,0.0,1093020.0,54438.0,12924.0,43325.0,5257.0,12345.0,5860.0,98103.0,0.0,,,,0.0
492,0.9609375,15,-467.0,0.0,0.0,1093020.0,54438.0,12924.0,43325.0,5257.0,12345.0,5860.0,98103.0,0.0,,,,0.0
493,0.962890625,15,-396.0,0.0,0.0,1093020.0,54438.0,12924.0,43325.0,5257.0,12345.0,5860.0,98103.0,0.0,,,,0.0
494,0.96484375,15,-183.0,0.0,0.0,1093020.0,54438.0,12924.0,43325.0,5257.0,12345.0,5860.0,98103.0,0.0,,,,0.0
495,0.966796875,15,60.0,0.0,0.0,1093020.0,54438.0,12924.0,43325.0,5257.0,12345.0,5860.0,98103.0,0.0,,,,0.0
496,0.96875,15,292.0,0.0,0.0,1093020.0,54438.0,12924.0,43325.0,5257.0,12345.0,5860.0,98103.0,0.0,,,,0.0
497,0.970703125,15,440.0,0.0,0.0,1093020.0,54438.0,12924.0,43325.0,5257.0,12345.0,5860.0,98103.0,0.0,,,,0.0
498,0.97265625,15,465.0,0.0,0.0,1093020.0,54438.0,12924.0,43325.0,5257.0,12345.0,5860.0,98103.0,0.0,,,,0.0
499,0.974609375,15,338.0,0.0,0.0,1093020.0,54438.0,12924.0,43325.0,5257.0,12345.0,5860.0,98103.0,0.0,,,,0.0
500,0.9765625,15,86.0,0.0,0.0,1093020.0,54438.0,12924.0,43325.0,5257.0,12345.0,5860.0,98103.0,0.0,,,,0.0
501,0.978515625,15,-215.0,0.0,0.0,1093020.0,54438.0,12924.0,43325.0,5257.0,12345.0,5860.0,98103.0,0.0,,,,0.0
502,0.98046875,15,-439.0,0.0,0.0,1093020.0,54438.0,12924.0,43325.0,5257.0,12345.0,5860.0,98103.0,0.0,,,,0.0
503,0.982421875,15,-444.0,0.0,0.0,1093020.0,54438.0,12924.0,43325.0,5257.0,12345.0,5860.0,98103.0,0.0,,,,0.0
504,0.984375,15,-220.0,0.0,0.0,1093020.0,54438.0,12924.0,43325.0,5257.0,12345.0,5860.0,98103.0,0.0,,,,0.0
505,0.986328125,15,70.0,0.0,0.0,1093020.0,54438.0,12924.0,43325.0,5257.0,12345.0,5860.0,98103.0,0.0,,,,0.0
506,0.98828125,15,291.0,0.0,0.0,1093020.0,54438.0,12924.0,43325.0,5257.0,12345.0,5860.0,98103.0,0.0,,,,0.0
507,0.990234375,15,404.0,0.0,0.0,1093020.0,54438.0,12924.0,43325.0,5257.0,12345.0,5860.0,98103.0,0.0,,,,0.0
508,0.9921875,15,424.0,0.0,0.0,1093020.0,54438.0,12924.0,43325.0,5257.0,12345.0,5860.0,98103.0,0.0,,,,0.0
509,0.994140625,15,356.0,0.0,0.0,1093020.0,54438.0,12924.0,43325.0,5257.0,12345.0,5860.0,98103.0,0.0,,,,0.0
510,0.99609375,15,156.0,0.0,0.0,1093020.0,54438.0,12924.0,43325.0,5257.0,12345.0,5860.0,98103.0,0.0,,,,0.0
511,0.998046875,15,-156.0,0.0,0.0,1093020.0,54438.0,12924.0,43325.0,5257.0,12345.0,5860.0,98103.0,0.0,,,,0.0
512,1.0,16,-437.0,0.0,0.0,1093020.0,54438.0,12924.0,43325.0,5257.0,12345.0,5860.0,98103.0,0.0,,,,0.0
513,1.001953125,16,-499.0,0.0,0.0,1093020.0,54438.0,12924.0,43325.0,5257.0,12345.0,5860.0,98103.0,0.0,,,,0.0
514,1.00390625,16,-316.0,0.0,0.0,1093020.0,54438.0,12924.0,43325.0,5257.0,12345.0,5860.0,98103.0,0.0,,,,0.0
515,1.005859375,16,-54.0,0.0,0.0,1093020.0,54438.0,12924.0,43325.0,5257.0,12345.0,5860.0,98103.0,0.0,,,,0.0
516,1.0078125,16,172.0,0.0,0.0,1093020.0,54438.0,12924.0,43325.0,5257.0,12345.0,5860.0,98103.0,0.0,,,,0.0
517,1.009765625,16,340.0,0.0,0.0,1093020.0,54438.0,12924.0,43325.0,5257.0,12345.0,5860.0,98103.0,0.0,,,,0.0
518,1.01171875,16,417.0,0.0,0.0,1093020.0,54438.0,12924.0,43325.0,5257.0,12345.0,5860.0,98103.0,0.0,,,,0.0
519,1.013671875,16,386.0,0.0,0.0,1093020.0,54438.0,12924.0,43325.0,5257.0,12345.0,5860.0,98103.0,0.0,,,,0.0
520,1.015625,16,208.0,0.0,0.0,1093020.0,54438.0,12924.0,43325.0,5257.0,12345.0,5860.0,98103.0,0.0,,,,0.0
521,1.017578125,16,-85.0,0.0,0.0,1093020.0,54438.0,12924.0,43325.0,5257.0,12345.0,5860.0,98103.0,0.0,,,,0.0
522,1.01953125,16,-356.0,0.0,0.0,1093020.0,54438.0,12924.0,43325.0,5257.0,12345.0,5860.0,98103.0,0.0,,,,0.0
523,1.021484375,16,-466.0,0.0,0.0,1093020.0,54438.0,12924.0,43325.0,5257.0,12345.0,5860.0,98103.0,0.0,,,,0.0
524,1.0234375,16,-361.0,0.0,0.0,86682.0,147406.0,6044.0,119885.0,2833.0,43506.0,2025.0,188739.0,0.0,,,,0.0
525,1.025390625,16,-124.0,0.0,0.0,86682.0,147406.0,6044.0,119885.0,2833.0,43506.0,2025.0,188739.0,0.0,,,,0.0
526,1.02734375,16,115.0,0.0,0.0,86682.0,147406.0,6044.0,119885.0,2833.0,43506.0,2025.0,188739.0,0.0,,,,0.0
527,1.029296875,16,290.0,0.0,0.0,86682.0,147406.0,6044.0,119885.0,2833.0,43506.0,2025.0,188739.0,0.0,,,,0.0
528,1.03125,16,402.0,0.0,0.0,86682.0,147406.0,6044.0,119885.0,2833.0,43506.0,2025.0,188739.0,0.0,,,,0.0
529,1.033203125,16,422.0,0.0,0.0,86682.0,147406.0,6044.0,119885.0,2833.0,43506.0,2025.0,188739.0,0.0,,,,0.0
530,1.03515625,16,295.0,0.0,0.0,86682.0,147406.0,6044.0,119885.0,2833.0,43506.0,2025.0,188739.0,0.0,,,,0.0
531,1.037109375,16,18.0,0.0,0.0,86682.0,147406.0,6044.0,119885.0,2833.0,43506.0,2025.0,188739.0,0.0,,,,0.0
532,1.0390625,16,-321.0,0.0,0.0,86682.0,147406.0,6044.0,119885.0,2833.0,43506.0,2025.0,188739.0,0.0,,,,0.0
533,1.041015625,16,-534.0,0.0,0.0,86682.0,147406.0,6044.0,119885.0,2833.0,43506.0,2025.0,188739.0,0.0,,,,0.0
534,1.04296875,16,-501.0,0.0,0.0,86682.0,147406.0,6044.0,119885.0,2833.0,43506.0,2025.0,188739.0,0.0,,,,0.0
535,1.044921875,16,-279.0,0.0,0.0,86682.0,147406.0,6044.0,119885.0,2833.0,43506.0,2025.0,188739.0,0.0,,,,0.0
536,1.046875,16,-6.0,0.0,0.0,86682.0,147406.0,6044.0,119885.0,2833.0,43506.0,2025.0,188739.0,0.0,,,,0.0
537,1.048828125,16,226.0,0.0,0.0,86682.0,147406.0,6044.0,119885.0,2833.0,43506.0,2025.0,188739.0,0.0,,,,0.0
538,1.05078125,16,385.0,0.0,0.0,86682.0,147406.0,6044.0,119885.0,2833.0,43506.0,2025.0,188739.0,0.0,,,,0.0
539,1.052734375,16,449.0,0.0,0.0,86682.0,147406.0,6044.0,119885.0,2833.0,43506.0,2025.0,188739.0,0.0,,,,0.0
540,1.0546875,16,388.0,0.0,0.0,86682.0,147406.0,6044.0,119885.0,2833.0,43506.0,2025.0,188739.0,0.0,,,,0.0
541,1.056640625,16,167.0,0.0,0.0,86682.0,147406.0,6044.0,119885.0,2833.0,43506.0,2025.0,188739.0,0.0,,,,0.0
542,1.05859375,16,-155.0,0.0,0.0,86682.0,147406.0,6044.0,119885.0,2833.0,43506.0,2025.0,188739.0,0.0,,,,0.0
543,1.060546875,16,-405.0,0.0,0.0,86682.0,147406.0,6044.0,119885.0,2833.0,43506.0,2025.0,188739.0,0.0,,,,0.0
544,1.0625,17,-443.0,0.0,0.0,86682.0,147406.0,6044.0,119885.0,2833.0,43506.0,2025.0,188739.0,0.0,,,,0.0
545,1.064453125,17,-252.0,0.0,0.0,86682.0,147406.0,6044.0,119885.0,2833.0,43506.0,2025.0,188739.0,0.0,,,,0.0
546,1.06640625,17,21.0,0.0,0.0,86682.0,147406.0,6044.0,119885.0,2833.0,43506.0,2025.0,188739.0,0.0,,,,0.0
547,1.068359375,17,252.0,0.0,0.0,86682.0,147406.0,6044.0,119885.0,2833.0,43506.0,2025.0,188739.0,0.0,,,,0.0
548,1.0703125,17,407.0,0.0,0.0,86682.0,147406.0,6044.0,119885.0,2833.0,43506.0,2025.0,188739.0,0.0,,,,0.0
549,1.072265625,17,487.0,0.0,0.0,86682.0,147406.0,6044.0,119885.0,2833.0,43506.0,2025.0,188739.0,0.0,,,,0.0
550,1.07421875,17,467.0,0.0,0.0,86682.0,147406.0,6044.0,119885.0,2833.0,43506.0,2025.0,188739.0,0.0,,,,0.0
551,1.076171875,17,278.0,0.0,0.0,86682.0,147406.0,6044.0,119885.0,2833.0,43506.0,2025.0,188739.0,0.0,,,,0.0
552,1.078125,17,-57.0,0.0,0.0,86682.0,147406.0,6044.0,119885.0,2833.0,43506.0,2025.0,188739.0,0.0,,,,0.0
553,1.080078125,17,-356.0,0.0,0.0,86682.0,147406.0,6044.0,119885.0,2833.0,43506.0,2025.0,188739.0,0.0,,,,0.0
554,1.08203125,17,-443.0,0.0,0.0,86682.0,147406.0,6044.0,119885.0,2833.0,43506.0,2025.0,188739.0,0.0,,,,0.0
555,1.083984375,17,-305.0,0.0,0.0,86682.0,147406.0,6044.0,119885.0,2833.0,43506.0,2025.0,188739.0,0.0,,,,0.0
556,1.0859375,17,-68.0,0.0,0.0,86682.0,147406.0,6044.0,119885.0,2833.0,43506.0,2025.0,188739.0,0.0,,,,0.0
557,1.087890625,17,155.0,0.0,0.0,86682.0,147406.0,6044.0,119885.0,2833.0,43506.0,2025.0,188739.0,0.0,,,,0.0
558,1.08984375,17,348.0,0.0,0.0,86682.0,147406.0,6044.0,119885.0,2833.0,43506.0,2025.0,188739.0,0.0,,,,0.0
559,1.091796875,17,473.0,0.0,0.0,86682.0,147406.0,6044.0,119885.0,2833.0,43506.0,2025.0,188739.0,0.0,,,,0.0
560,1.09375,17,491.0,0.0,0.0,86682.0,147406.0,6044.0,119885.0,2833.0,43506.0,2025.0,188739.0,0.0,,,,0.0
561,1.095703125,17,348.0,0.0,0.0,86682.0,147406.0,6044.0,119885.0,2833.0,43506.0,2025.0,188739.0,0.0,,,,0.0
562,1.09765625,17,48.0,0.0,0.0,86682.0,147406.0,6044.0,119885.0,2833.0,43506.0,2025.0,188739.0,0.0,,,,0.0
563,1.099609375,17,-296.0,0.0,0.0,86682.0,147406.0,6044.0,119885.0,2833.0,43506.0,2025.0,188739.0,0.0,,,,0.0
564,1.1015625,17,-509.0,0.0,0.0,86682.0,147406.0,6044.0,119885.0,2833.0,43506.0,2025.0,188739.0,0.0,,,,0.0
565,1.103515625,17,-458.0,0.0,0.0,86682.0,147406.0,6044.0,119885.0,2833.0,43506.0,2025.0,188739.0,0.0,,,,0.0
566,1.10546875,17,-188.0,0.0,0.0,86682.0,147406.0,6044.0,119885.0,2833.0,43506.0,2025.0,188739.0,0.0,,,,0.0
567,1.107421875,17,97.0,0.0,0.0,86682.0,147406.0,6044.0,119885.0,2833.0,43506.0,2025.0,188739.0,0.0,,,,0.0
568,1.109375,17,298.0,0.0,0.0,86682.0,147406.0,6044.0,119885.0,2833.0,43506.0,2025.0,188739.0,0.0,,,,0.0
569,1.111328125,17,408.0,0.0,0.0,86682.0,147406.0,6044.0,119885.0,2833.0,43506.0,2025.0,188739.0,0.0,,,,0.0
570,1.11328125,17,451.0,0.0,0.0,86682.0,147406.0,6044.0,119885.0,2833.0,43506.0,2025.0,188739.0,0.0,,,,0.0
571,1.115234375,17,380.0,0.0,0.0,86682.0,147406.0,6044.0,119885.0,2833.0,43506.0,2025.0,188739.0,0.0,,,,0.0
572,1.1171875,17,151.0,0.0,0.0,86682.0,147406.0,6044.0,119885.0,2833.0,43506.0,2025.0,188739.0,0.0,,,,0.0
573,1.119140625,17,-177.0,0.0,0.0,86682.0,147406.0,6044.0,119885.0,2833.0,43506.0,2025.0,188739.0,0.0,,,,0.0
574,1.12109375,17,-446.0,0.0,0.0,86682.0,147406.0,6044.0,119885.0,2833.0,43506.0,2025.0,188739.0,0.0,,,,0.0
575,1.123046875,17,-489.0,0.0,0.0,86682.0,147406.0,6044.0,119885.0,2833.0,43506.0,2025.0,188739.0,0.0,,,,0.0
576,1.125,18,-295.0,0.0,0.0,86682.0,147406.0,6044.0,119885.0,2833.0,43506.0,2025.0,188739.0,0.0,,,,0.0
577,1.126953125,18,-14.0,0.0,0.0,86682.0,147406.0,6044.0,119885.0,2833.0,43506.0,2025.0,188739.0,0.0,,,,0.0
578,1.12890625,18,209.0,0.0,0.0,86682.0,147406.0,6044.0,119885.0,2833.0,43506.0,2025.0,188739.0,0.0,,,,0.0
579,1.130859375,18,352.0,0.0,0.0,86682.0,147406.0,6044.0,119885.0,2833.0,43506.0,2025.0,188739.0,0.0,,,,0.0
580,1.1328125,18,422.0,0.0,0.0,86682.0,147406.0,6044.0,119885.0,2833.0,43506.0,2025.0,188739.0,0.0,,,,0.0
581,1.134765625,18,392.0,0.0,0.0,86682.0,147406.0,6044.0,119885.0,2833.0,43506.0,2025.0,188739.0,0.0,,,,0.0
582,1.13671875,18,210.0,0.0,0.0,86682.0,147406.0,6044.0,119885.0,2833.0,43506.0,2025.0,188739.0,0.0,,,,0.0
583,1.138671875,18,-109.0,0.0,0.0,86682.0,147406.0,6044.0,119885.0,2833.0,43506.0,2025.0,188739.0,0.0,,,,0.0
584,1.140625,18,-422.0,0.0,0.0,86682.0,147406.0,6044.0,119885.0,2833.0,43506.0,2025.0,188739.0,0.0,,,,0.0
585,1.142578125,18,-518.0,0.0,0.0,86682.0,147406.0,6044.0,119885.0,2833.0,43506.0,2025.0,188739.0,0.0,,,,0.0
586,1.14453125,18,-369.0,0.0,0.0,86682.0,147406.0,6044.0,119885.0,2833.0,43506.0,2025.0,188739.0,0.0,,,,0.0
587,1.146484375,18,-115.0,0.0,0.0,86682.0,147406.0,6044.0,119885.0,2833.0,43506.0,2025.0,188739.0,0.0,,,,0.0
588,1.1484375,18,123.0,0.0,0.0,86682.0,147406.0,6044.0,119885.0,2833.0,43506.0,2025.0,188739.0,0.0,,,,0.0
589,1.150390625,18,336.0,0.0,0.0,86682.0,147406.0,6044.0,119885.0,2833.0,43506.0,2025.0,188739.0,0.0,,,,0.0
590,1.15234375,18,482.0,0.0,0.0,86682.0,147406.0,6044.0,119885.0,2833.0,43506.0,2025.0,188739.0,0.0,,,,0.0
591,1.154296875,18,490.0,0.0,0.0,86682.0,147406.0,6044.0,119885.0,2833.0,43506.0,2025.0,188739.0,0.0,,,,0.0
592,1.15625,18,342.0,0.0,0.0,86682.0,147406.0,6044.0,119885.0,2833.0,43506.0,2025.0,188739.0,0.0,,,,0.0
593,1.158203125,18,43.0,0.0,0.0,86682.0,147406.0,6044.0,119885.0,2833.0,43506.0,2025.0,188739.0,0.0,,,,0.0
594,1.16015625,18,-267.0,0.0,0.0,86682.0,147406.0,6044.0,119885.0,2833.0,43506.0,2025.0,188739.0,0.0,,,,0.0
595,1.162109375,18,-427.0,0.0,0.0,86682.0,147406.0,6044.0,119885.0,2833.0,43506.0,2025.0,188739.0,0.0,,,,0.0
596,1.1640625,18,-365.0,0.0,0.0,86682.0,147406.0,6044.0,119885.0,2833.0,43506.0,2025.0,188739.0,0.0,,,,0.0
597,1.166015625,18,-146.0,0.0,0.0,86682.0,147406.0,6044.0,119885.0,2833.0,43506.0,2025.0,188739.0,0.0,,,,0.0
598,1.16796875,18,106.0,0.0,0.0,86682.0,147406.0,6044.0,119885.0,2833.0,43506.0,2025.0,188739.0,0.0,,,,0.0
599,1.169921875,18,325.0,0.0,0.0,86682.0,147406.0,6044.0,119885.0,2833.0,43506.0,2025.0,188739.0,0.0,,,,0.0
600,1.171875,18,454.0,0.0,0.0,86682.0,147406.0,6044.0,119885.0,2833.0,43506.0,2025.0,188739.0,0.0,,,,0.0
601,1.173828125,18,484.0,0.0,0.0,86682.0,147406.0,6044.0,119885.0,2833.0,43506.0,2025.0,188739.0,0.0,,,,0.0
602,1.17578125,18,391.0,0.0,0.0,86682.0,147406.0,6044.0,119885.0,2833.0,43506.0,2025.0,188739.0,0.0,,,,0.0
603,1.177734375,18,137.0,0.0,0.0,86682.0,147406.0,6044.0,119885.0,2833.0,43506.0,2025.0,188739.0,0.0,,,,0.0
604,1.1796875,18,-186.0,0.0,0.0,86682.0,147406.0,6044.0,119885.0,2833.0,43506.0,2025.0,188739.0,0.0,,,,0.0
605,1.181640625,18,-428.0,0.0,0.0,86682.0,147406.0,6044.0,119885.0,2833.0,43506.0,2025.0,188739.0,0.0,,,,0.0
606,1.18359375,18,-457.0,0.0,0.0,86682.0,147406.0,6044.0,119885.0,2833.0,43506.0,2025.0,188739.0,0.0,,,,0.0
607,1.185546875,18,-248.0,0.0,0.0,86682.0,147406.0,6044.0,119885.0,2833.0,43506.0,2025.0,188739.0,0.0,,,,0.0
608,1.1875,19,60.0,0.0,0.0,86682.0,147406.0,6044.0,119885.0,2833.0,43506.0,2025.0,188739.0,0.0,,,,0.0
609,1.189453125,19,304.0,0.0,0.0,86682.0,147406.0,6044.0,119885.0,2833.0,43506.0,2025.0,188739.0,0.0,,,,0.0
610,1.19140625,19,438.0,0.0,0.0,86682.0,147406.0,6044.0,119885.0,2833.0,43506.0,2025.0,188739.0,0.0,,,,0.0
611,1.193359375,19,500.0,0.0,0.0,86682.0,147406.0,6044.0,119885.0,2833.0,43506.0,2025.0,188739.0,0.0,,,,0.0
612,1.1953125,19,467.0,0.0,0.0,86682.0,147406.0,6044.0,119885.0,2833.0,43506.0,2025.0,188739.0,0.0,,,,0.0
613,1.197265625,19,289.0,0.0,0.0,86682.0,147406.0,6044.0,119885.0,2833.0,43506.0,2025.0,188739.0,0.0,,,,0.0
614,1.19921875,19,-21.0,0.0,0.0,86682.0,147406.0,6044.0,119885.0,2833.0,43506.0,2025.0,188739.0,0.0,,,,0.0
615,1.201171875,19,-323.0,0.0,0.0,86682.0,147406.0,6044.0,119885.0,2833.0,43506.0,2025.0,188739.0,0.0,,,,0.0
616,1.203125,19,-420.0,0.0,0.0,86682.0,147406.0,6044.0,119885.0,2833.0,43506.0,2025.0,188739.0,0.0,,,,0.0
617,1.205078125,19,-260.0,0.0,0.0,86682.0,147406.0,6044.0,119885.0,2833.0,43506.0,2025.0,188739.0,0.0,,,,0.0
618,1.20703125,19,9.0,0.0,0.0,86682.0,147406.0,6044.0,119885.0,2833.0,43506.0,2025.0,188739.0,0.0,,,,0.0
619,1.208984375,19,248.0,0.0,0.0,86682.0,147406.0,6044.0,119885.0,2833.0,43506.0,2025.0,188739.0,0.0,,,,0.0
620,1.2109375,19,404.0,0.0,0.0,86682.0,147406.0,6044.0,119885.0,2833.0,43506.0,2025.0,188739.0,0.0,,,,0.0
621,1.212890625,19,491.0,0.0,0.0,86682.0,147406.0,6044.0,119885.0,2833.0,43506.0,2025.0,188739.0,0.0,,,,0.0
622,1.21484375,19,497.0,0.0,0.0,86682.0,147406.0,6044.0,119885.0,2833.0,43506.0,2025.0,188739.0,0.0,,,,0.0
623,1.216796875,19,353.0,0.0,0.0,86682.0,147406.0,6044.0,119885.0,2833.0,43506.0,2025.0,188739.0,0.0,,,,0.0
624,1.21875,19,51.0,0.0,0.0,86682.0,147406.0,6044.0,119885.0,2833.0,43506.0,2025.0,188739.0,0.0,,,,0.0
625,1.220703125,19,-290.0,0.0,0.0,86682.0,147406.0,6044.0,119885.0,2833.0,43506.0,2025.0,188739.0,0.0,,,,0.0
626,1.22265625,19,-489.0,0.0,0.0,86682.0,147406.0,6044.0,119885.0,2833.0,43506.0,2025.0,188739.0,0.0,,,,0.0
627,1.224609375,19,-413.0,0.0,0.0,86682.0,147406.0,6044.0,119885.0,2833.0,43506.0,2025.0,188739.0,0.0,,,,0.0
628,1.2265625,19,-133.0,0.0,0.0,86682.0,147406.0,6044.0,119885.0,2833.0,43506.0,2025.0,188739.0,0.0,,,,0.0
629,1.228515625,19,137.0,0.0,0.0,86682.0,147406.0,6044.0,119885.0,2833.0,43506.0,2025.0,188739.0,0.0,,,,0.0
630,1.23046875,19,329.0,0.0,0.0,86682.0,147406.0,6044.0,119885.0,2833.0,43506.0,2025.0,188739.0,0.0,,,,0.0
631,1.232421875,19,454.0,0.0,0.0,86682.0,147406.0,6044.0,119885.0,2833.0,43506.0,2025.0,188739.0,0.0,,,,0.0
632,1.234375,19,491.0,0.0,0.0,86682.0,147406.0,6044.0,119885.0,2833.0,43506.0,2025.0,188739.0,0.0,,,,0.0
633,1.236328125,19,386.0,0.0,0.0,86682.0,147406.0,6044.0,119885.0,2833.0,43506.0,2025.0,188739.0,0.0,,,,0.0
634,1.23828125,19,112.0,0.0,0.0,86682.0,147406.0,6044.0,119885.0,2833.0,43506.0,2025.0,188739.0,0.0,,,,0.0
635,1.240234375,19,-228.0,0.0,0.0,86682.0,147406.0,6044.0,119885.0,2833.0,43506.0,2025.0,188739.0,0.0,,,,0.0
636,1.2421875,19,-459.0,0.0,0.0,86682.0,147406.0,6044.0,119885.0,2833.0,43506.0,2025.0,188739.0,0.0,,,,0.0
637,1.244140625,19,-468.0,0.0,0.0,86682.0,147406.0,6044.0,119885.0,2833.0,43506.0,2025.0,188739.0,0.0,,,,0.0
638,1.24609375,19,-268.0,0.0,0.0,86682.0,147406.0,6044.0,119885.0,2833.0,43506.0,2025.0,188739.0,0.0,,,,0.0
639,1.248046875,19,-10.0,0.0,0.0,86682.0,147406.0,6044.0,119885.0,2833.0,43506.0,2025.0,188739.0,0.0,,,,0.0
640,1.25,20,232.0,0.0,0.0,86682.0,147406.0,6044.0,119885.0,2833.0,43506.0,2025.0,188739.0,0.0,,,,0.0
641,1.251953125,20,422.0,0.0,0.0,86682.0,147406.0,6044.0,119885.0,2833.0,43506.0,2025.0,188739.0,0.0,,,,0.0
642,1.25390625,20,499.0,0.0,0.0,86682.0,147406.0,6044.0,119885.0,2833.0,43506.0,2025.0,188739.0,0.0,,,,0.0
643,1.255859375,20,443.0,0.0,0.0,86682.0,147406.0,6044.0,119885.0,2833.0,43506.0,2025.0,188739.0,0.0,,,,0.0
644,1.2578125,20,229.0,0.0,0.0,86682.0,147406.0,6044.0,119885.0,2833.0,43506.0,2025.0,188739.0,0.0,,,,0.0
645,1.259765625,20,-104.0,0.0,0.0,86682.0,147406.0,6044.0,119885.0,2833.0,43506.0,2025.0,188739.0,0.0,,,,0.0
646,1.26171875,20,-403.0,0.0,0.0,86682.0,147406.0,6044.0,119885.0,2833.0,43506.0,2025.0,188739.0,0.0,,,,0.0
647,1.263671875,20,-505.0,0.0,0.0,86682.0,147406.0,6044.0,119885.0,2833.0,43506.0,2025.0,188739.0,0.0,,,,0.0
648,1.265625,20,-365.0,0.0,0.0,86682.0,147406.0,6044.0,119885.0,2833.0,43506.0,2025.0,188739.0,0.0,,,,0.0
649,1.267578125,20,-109.0,0.0,0.0,86682.0,147406.0,6044.0,119885.0,2833.0,43506.0,2025.0,188739.0,0.0,,,,0.0
650,1.26953125,20,140.0,0.0,0.0,86682.0,147406.0,6044.0,119885.0,2833.0,43506.0,2025.0,188739.0,0.0,,,,0.0
651,1.271484375,20,358.0,0.0,0.0,86682.0,147406.0,6044.0,119885.0,2833.0,43506.0,2025.0,188739.0,0.0,,,,0.0
652,1.2734375,20,483.0,0.0,0.0,86682.0,147406.0,6044.0,119885.0,2833.0,43506.0,2025.0,188739.0,0.0,,,,0.0
653,1.275390625,20,470.0,0.0,0.0,86682.0,147406.0,6044.0,119885.0,2833.0,43506.0,2025.0,188739.0,0.0,,,,0.0
654,1.27734375,20,305.0,0.0,0.0,86682.0,147406.0,6044.0,119885.0,2833.0,43506.0,2025.0,188739.0,0.0,,,,0.0
655,1.279296875,20,-4.0,0.0,0.0,86682.0,147406.0,6044.0,119885.0,2833.0,43506.0,2025.0,188739.0,0.0,,,,0.0
656,1.28125,20,-340.0,0.0,0.0,86682.0,147406.0,6044.0,119885.0,2833.0,43506.0,2025.0,188739.0,0.0,,,,0.0
657,1.283203125,20,-497.0,0.0,0.0,86682.0,147406.0,6044.0,119885.0,2833.0,43506.0,2025.0,188739.0,0.0,,,,0.0
658,1.28515625,20,-401.0,0.0,0.0,86682.0,147406.0,6044.0,119885.0,2833.0,43506.0,2025.0,188739.0,0.0,,,,0.0
659,1.287109375,20,-166.0,0.0,0.0,86682.0,147406.0,6044.0,119885.0,2833.0,43506.0,2025.0,188739.0,0.0,,,,0.0
660,1.2890625,20,57.0,0.0,0.0,86682.0,147406.0,6044.0,119885.0,2833.0,43506.0,2025.0,188739.0,0.0,,,,0.0
661,1.291015625,20,243.0,0.0,0.0,86682.0,147406.0,6044.0,119885.0,2833.0,43506.0,2025.0,188739.0,0.0,,,,0.0
662,1.29296875,20,388.0,0.0,0.0,86682.0,147406.0,6044.0,119885.0,2833.0,43506.0,2025.0,188739.0,0.0,,,,0.0
663,1.294921875,20,453.0,0.0,0.0,86682.0,147406.0,6044.0,119885.0,2833.0,43506.0,2025.0,188739.0,0.0,,,,0.0
664,1.296875,20,372.0,0.0,0.0,86682.0,147406.0,6044.0,119885.0,2833.0,43506.0,2025.0,188739.0,0.0,,,,0.0
665,1.298828125,20,93.0,0.0,0.0,86682.0,147406.0,6044.0,119885.0,2833.0,43506.0,2025.0,188739.0,0.0,,,,0.0
666,1.30078125,20,-276.0,0.0,0.0,86682.0,147406.0,6044.0,119885.0,2833.0,43506.0,2025.0,188739.0,0.0,,,,0.0
667,1.302734375,20,-524.0,0.0,0.0,86682.0,147406.0,6044.0,119885.0,2833.0,43506.0,2025.0,188739.0,0.0,,,,0.0
668,1.3046875,20,-517.0,0.0,0.0,86682.0,147406.0,6044.0,119885.0,2833.0,43506.0,2025.0,188739.0,0.0,,,,0.0
669,1.306640625,20,-279.0,0.0,0.0,86682.0,147406.0,6044.0,119885.0,2833.0,43506.0,2025.0,188739.0,0.0,,,,0.0
670,1.30859375,20,16.0,0.0,0.0,86682.0,147406.0,6044.0,119885.0,2833.0,43506.0,2025.0,188739.0,0.0,,,,0.0
671,1.310546875,20,260.0,0.0,0.0,86682.0,147406.0,6044.0,119885.0,2833.0,43506.0,2025.0,188739.0,0.0,,,,0.0
672,1.3125,21,389.0,0.0,0.0,86682.0,147406.0,6044.0,119885.0,2833.0,43506.0,2025.0,188739.0,0.0,,,,0.0
673,1.314453125,21,413.0,0.0,0.0,86682.0,147406.0,6044.0,119885.0,2833.0,43506.0,2025.0,188739.0,0.0,,,,0.0
674,1.31640625,21,373.0,0.0,0.0,86682.0,147406.0,6044.0,119885.0,2833.0,43506.0,2025.0,188739.0,0.0,,,,0.0
675,1.318359375,21,211.0,0.0,0.0,86682.0,147406.0,6044.0,119885.0,2833.0,43506.0,2025.0,188739.0,0.0,,,,0.0
676,1.3203125,21,-88.0,0.0,0.0,86682.0,147406.0,6044.0,119885.0,2833.0,43506.0,2025.0,188739.0,0.0,,,,0.0
677,1.322265625,21,-376.0,0.0,0.0,86682.0,147406.0,6044.0,119885.0,2833.0,43506.0,2025.0,188739.0,0.0,,,,0.0
678,1.32421875,21,-453.0,0.0,0.0,86682.0,147406.0,6044.0,119885.0,2833.0,43506.0,2025.0,188739.0,0.0,,,,0.0
679,1.326171875,21,-283.0,0.0,0.0,86682.0,147406.0,6044.0,119885.0,2833.0,43506.0,2025.0,188739.0,0.0,,,,0.0
680,1.328125,21,-14.0,0.0,0.0,86682.0,147406.0,6044.0,119885.0,2833.0,43506.0,2025.0,188739.0,0.0,,,,0.0
681,1.330078125,21,216.0,0.0,0.0,86682.0,147406.0,6044.0,119885.0,2833.0,43506.0,2025.0,188739.0,0.0,,,,0.0
682,1.33203125,21,390.0,0.0,0.0,86682.0,147406.0,6044.0,119885.0,2833.0,43506.0,2025.0,188739.0,0.0,,,,0.0
683,1.333984375,21,484.0,0.0,0.0,86682.0,147406.0,6044.0,119885.0,2833.0,43506.0,2025.0,188739.0,0.0,,,,0.0
684,1.3359375,21,455.0,0.0,0.0,86682.0,147406.0,6044.0,119885.0,2833.0,43506.0,2025.0,188739.0,0.0,,,,0.0
685,1.337890625,21,268.0,0.0,0.0,86682.0,147406.0,6044.0,119885.0,2833.0,43506.0,2025.0,188739.0,0.0,,,,0.0
686,1.33984375,21,-55.0,0.0,0.0,86682.0,147406.0,6044.0,119885.0,2833.0,43506.0,2025.0,188739.0,0.0,,,,0.0
687,1.341796875,21,-387.0,0.0,0.0,86682.0,147406.0,6044.0,119885.0,2833.0,43506.0,2025.0,188739.0,0.0,,,,0.0
688,1.34375,21,-536.0,0.0,0.0,86682.0,147406.0,6044.0,119885.0,2833.0,43506.0,2025.0,188739.0,0.0,,,,0.0
689,1.345703125,21,-423.0,0.0,0.0,86682.0,147406.0,6044.0,119885.0,2833.0,43506.0,2025.0,188739.0,0.0,,,,0.0
690,1.34765625,21,-165.0,0.0,0.0,86682.0,147406.0,6044.0,119885.0,2833.0,43506.0,2025.0,188739.0,0.0,,,,0.0
691,1.349609375,21,101.0,0.0,0.0,86682.0,147406.0,6044.0,119885.0,2833.0,43506.0,2025.0,188739.0,0.0,,,,0.0
692,1.3515625,21,310.0,0.0,0.0,86682.0,147406.0,6044.0,119885.0,2833.0,43506.0,2025.0,188739.0,0.0,,,,0.0
693,1.353515625,21,451.0,0.0,0.0,86682.0,147406.0,6044.0,119885.0,2833.0,43506.0,2025.0,188739.0,0.0,,,,0.0
694,1.35546875,21,467.0,0.0,0.0,86682.0,147406.0,6044.0,119885.0,2833.0,43506.0,2025.0,188739.0,0.0,,,,0.0
695,1.357421875,21,340.0,0.0,0.0,86682.0,147406.0,6044.0,119885.0,2833.0,43506.0,2025.0,188739.0,0.0,,,,0.0
696,1.359375,21,57.0,0.0,0.0,86682.0,147406.0,6044.0,119885.0,2833.0,43506.0,2025.0,188739.0,0.0,,,,0.0
697,1.361328125,21,-289.0,0.0,0.0,86682.0,147406.0,6044.0,119885.0,2833.0,43506.0,2025.0,188739.0,0.0,,,,0.0
698,1.36328125,21,-506.0,0.0,0.0,86682.0,147406.0,6044.0,119885.0,2833.0,43506.0,2025.0,188739.0,0.0,,,,0.0
699,1.365234375,21,-450.0,0.0,0.0,86682.0,147406.0,6044.0,119885.0,2833.0,43506.0,2025.0,188739.0,0.0,,,,0.0
700,1.3671875,21,-188.0,0.0,0.0,86682.0,147406.0,6044.0,119885.0,2833.0,43506.0,2025.0,188739.0,0.0,,,,0.0
701,1.369140625,21,87.0,0.0,0.0,86682.0,147406.0,6044.0,119885.0,2833.0,43506.0,2025.0,188739.0,0.0,,,,0.0
702,1.37109375,21,320.0,0.0,0.0,86682.0,147406.0,6044.0,119885.0,2833.0,43506.0,2025.0,188739.0,0.0,,,,0.0
703,1.373046875,21,476.0,0.0,0.0,86682.0,147406.0,6044.0,119885.0,2833.0,43506.0,2025.0,188739.0,0.0,,,,0.0
704,1.375,22,519.0,0.0,0.0,86682.0,147406.0,6044.0,119885.0,2833.0,43506.0,2025.0,188739.0,0.0,,,,0.0
705,1.376953125,22,435.0,0.0,0.0,86682.0,147406.0,6044.0,119885.0,2833.0,43506.0,2025.0,188739.0,0.0,,,,0.0
706,1.37890625,22,194.0,0.0,0.0,86682.0,147406.0,6044.0,119885.0,2833.0,43506.0,2025.0,188739.0,0.0,,,,0.0
707,1.380859375,22,-134.0,0.0,0.0,86682.0,147406.0,6044.0,119885.0,2833.0,43506.0,2025.0,188739.0,0.0,,,,0.0
708,1.3828125,22,-410.0,0.0,0.0,86682.0,147406.0,6044.0,119885.0,2833.0,43506.0,2025.0,188739.0,0.0,,,,0.0
709,1.384765625,22,-492.0,0.0,0.0,86682.0,147406.0,6044.0,119885.0,2833.0,43506.0,2025.0,188739.0,0.0,,,,0.0
710,1.38671875,22,-348.0,0.0,0.0,86682.0,147406.0,6044.0,119885.0,2833.0,43506.0,2025.0,188739.0,0.0,,,,0.0
711,1.388671875,22,-89.0,0.0,0.0,86682.0,147406.0,6044.0,119885.0,2833.0,43506.0,2025.0,188739.0,0.0,,,,0.0
712,1.390625,22,164.0,0.0,0.0,86682.0,147406.0,6044.0,119885.0,2833.0,43506.0,2025.0,188739.0,0.0,,,,0.0
713,1.392578125,22,474.0,0.0,0.0,86682.0,147406.0,6044.0,119885.0,2833.0,43506.0,2025.0,188739.0,0.0,,,,0.0
714,1.39453125,22,429.0,0.0,0.0,86682.0,147406.0,6044.0,119885.0,2833.0,43506.0,2025.0,188739.0,0.0,,,,0.0
715,1.396484375,22,224.0,0.0,0.0,86682.0,147406.0,6044.0,119885.0,2833.0,43506.0,2025.0,188739.0,0.0,,,,0.0
716,1.3984375,22,-93.0,0.0,0.0,86682.0,147406.0,6044.0,119885.0,2833.0,43506.0,2025.0,188739.0,0.0,,,,0.0
717,1.400390625,22,-377.0,0.0,0.0,86682.0,147406.0,6044.0,119885.0,2833.0,43506.0,2025.0,188739.0,0.0,,,,0.0
718,1.40234375,22,-477.0,0.0,0.0,86682.0,147406.0,6044.0,119885.0,2833.0,43506.0,2025.0,188739.0,0.0,,,,0.0
719,1.404296875,22,-362.0,0.0,0.0,86682.0,147406.0,6044.0,119885.0,2833.0,43506.0,2025.0,188739.0,0.0,,,,0.0
720,1.40625,22,-121.0,0.0,0.0,86682.0,147406.0,6044.0,119885.0,2833.0,43506.0,2025.0,188739.0,0.0,,,,0.0
721,1.408203125,22,121.0,0.0,0.0,86682.0,147406.0,6044.0,119885.0,2833.0,43506.0,2025.0,188739.0,0.0,,,,0.0
722,1.41015625,22,320.0,0.0,0.0,86682.0,147406.0,6044.0,119885.0,2833.0,43506.0,2025.0,188739.0,0.0,,,,0.0
723,1.412109375,22,438.0,0.0,0.0,86682.0,147406.0,6044.0,119885.0,2833.0,43506.0,2025.0,188739.0,0.0,,,,0.0
724,1.4140625,22,455.0,0.0,0.0,86682.0,147406.0,6044.0,119885.0,2833.0,43506.0,2025.0,188739.0,0.0,,,,0.0
725,1.416015625,22,327.0,0.0,0.0,86682.0,147406.0,6044.0,119885.0,2833.0,43506.0,2025.0,188739.0,0.0,,,,0.0
726,1.41796875,22,33.0,0.0,0.0,86682.0,147406.0,6044.0,119885.0,2833.0,43506.0,2025.0,188739.0,0.0,,,,0.0
727,1.419921875,22,-316.0,0.0,0.0,86682.0,147406.0,6044.0,119885.0,2833.0,43506.0,2025.0,188739.0,0.0,,,,0.0
728,1.421875,22,-524.0,0.0,0.0,86682.0,147406.0,6044.0,119885.0,2833.0,43506.0,2025.0,188739.0,0.0,,,,0.0
729,1.423828125,22,-438.0,0.0,0.0,86682.0,147406.0,6044.0,119885.0,2833.0,43506.0,2025.0,188739.0,0.0,,,,0.0
730,1.42578125,22,-157.0,0.0,0.0,86682.0,147406.0,6044.0,119885.0,2833.0,43506.0,2025.0,188739.0,0.0,,,,0.0
731,1.427734375,22,115.0,0.0,0.0,86682.0,147406.0,6044.0,119885.0,2833.0,43506.0,2025.0,188739.0,0.0,,,,0.0
732,1.4296875,22,324.0,0.0,0.0,86682.0,147406.0,6044.0,119885.0,2833.0,43506.0,2025.0,188739.0,0.0,,,,0.0
733,1.431640625,22,451.0,0.0,0.0,86682.0,147406.0,6044.0,119885.0,2833.0,43506.0,2025.0,188739.0,0.0,,,,0.0
734,1.43359375,22,481.0,0.0,0.0,86682.0,147406.0,6044.0,119885.0,2833.0,43506.0,2025.0,188739.0,0.0,,,,0.0
735,1.435546875,22,393.0,0.0,0.0,86682.0,147406.0,6044.0,119885.0,2833.0,43506.0,2025.0,188739.0,0.0,,,,0.0
736,1.4375,23,150.0,0.0,0.0,86682.0,147406.0,6044.0,119885.0,2833.0,43506.0,2025.0,188739.0,0.0,,,,0.0
737,1.439453125,23,-181.0,0.0,0.0,86682.0,147406.0,6044.0,119885.0,2833.0,43506.0,2025.0,188739.0,0.0,,,,0.0
738,1.44140625,23,-435.0,0.0,0.0,86682.0,147406.0,6044.0,119885.0,2833.0,43506.0,2025.0,188739.0,0.0,,,,0.0
739,1.443359375,23,-469.0,0.0,0.0,86682.0,147406.0,6044.0,119885.0,2833.0,43506.0,2025.0,188739.0,0.0,,,,0.0
740,1.4453125,23,-276.0,0.0,0.0,86682.0,147406.0,6044.0,119885.0,2833.0,43506.0,2025.0,188739.0,0.0,,,,0.0
741,1.447265625,23,-6.0,0.0,0.0,86682.0,147406.0,6044.0,119885.0,2833.0,43506.0,2025.0,188739.0,0.0,,,,0.0
742,1.44921875,23,248.0,0.0,0.0,86682.0,147406.0,6044.0,119885.0,2833.0,43506.0,2025.0,188739.0,0.0,,,,0.0
743,1.451171875,23,435.0,0.0,0.0,86682.0,147406.0,6044.0,119885.0,2833.0,43506.0,2025.0,188739.0,0.0,,,,0.0
744,1.453125,23,508.0,0.0,0.0,86682.0,147406.0,6044.0,119885.0,2833.0,43506.0,2025.0,188739.0,0.0,,,,0.0
745,1.455078125,23,467.0,0.0,0.0,86682.0,147406.0,6044.0,119885.0,2833.0,43506.0,2025.0,188739.0,0.0,,,,0.0
746,1.45703125,23,280.0,0.0,0.0,86682.0,147406.0,6044.0,119885.0,2833.0,43506.0,2025.0,188739.0,0.0,,,,0.0
747,1.458984375,23,-28.0,0.0,0.0,86682.0,147406.0,6044.0,119885.0,2833.0,43506.0,2025.0,188739.0,0.0,,,,0.0
748,1.4609375,23,-322.0,0.0,0.0,86682.0,147406.0,6044.0,119885.0,2833.0,43506.0,2025.0,188739.0,0.0,,,,0.0
749,1.462890625,23,-456.0,0.0,0.0,86682.0,147406.0,6044.0,119885.0,2833.0,43506.0,2025.0,188739.0,0.0,,,,0.0
750,1.46484375,23,-338.0,0.0,0.0,86682.0,147406.0,6044.0,119885.0,2833.0,43506.0,2025.0,188739.0,0.0,,,,0.0
751,1.466796875,23,-69.0,0.0,0.0,86682.0,147406.0,6044.0,119885.0,2833.0,43506.0,2025.0,188739.0,0.0,,,,0.0
752,1.46875,23,187.0,0.0,0.0,86682.0,147406.0,6044.0,119885.0,2833.0,43506.0,2025.0,188739.0,0.0,,,,0.0
753,1.470703125,23,377.0,0.0,0.0,86682.0,147406.0,6044.0,119885.0,2833.0,43506.0,2025.0,188739.0,0.0,,,,0.0
754,1.47265625,23,481.0,0.0,0.0,86682.0,147406.0,6044.0,119885.0,2833.0,43506.0,2025.0,188739.0,0.0,,,,0.0
755,1.474609375,23,482.0,0.0,0.0,86682.0,147406.0,6044.0,119885.0,2833.0,43506.0,2025.0,188739.0,0.0,,,,0.0
756,1.4765625,23,332.0,0.0,0.0,86682.0,147406.0,6044.0,119885.0,2833.0,43506.0,2025.0,188739.0,0.0,,,,0.0
757,1.478515625,23,40.0,0.0,0.0,86682.0,147406.0,6044.0,119885.0,2833.0,43506.0,2025.0,188739.0,0.0,,,,0.0
758,1.48046875,23,-283.0,0.0,0.0,86682.0,147406.0,6044.0,119885.0,2833.0,43506.0,2025.0,188739.0,0.0,,,,0.0
759,1.482421875,23,-461.0,0.0,0.0,86682.0,147406.0,6044.0,119885.0,2833.0,43506.0,2025.0,188739.0,0.0,,,,0.0
760,1.484375,23,-370.0,0.0,0.0,86682.0,147406.0,6044.0,119885.0,2833.0,43506.0,2025.0,188739.0,0.0,,,,0.0
761,1.486328125,23,-100.0,0.0,0.0,86682.0,147406.0,6044.0,119885.0,2833.0,43506.0,2025.0,188739.0,0.0,,,,0.0
762,1.48828125,23,154.0,0.0,0.0,86682.0,147406.0,6044.0,119885.0,2833.0,43506.0,2025.0,188739.0,0.0,,,,0.0
763,1.490234375,23,330.0,0.0,0.0,86682.0,147406.0,6044.0,119885.0,2833.0,43506.0,2025.0,188739.0,0.0,,,,0.0
764,1.4921875,23,450.0,0.0,0.0,86682.0,147406.0,6044.0,119885.0,2833.0,43506.0,2025.0,188739.0,0.0,,,,0.0
765,1.494140625,23,484.0,0.0,0.0,86682.0,147406.0,6044.0,119885.0,2833.0,43506.0,2025.0,188739.0,0.0,,,,0.0
766,1.49609375,23,378.0,0.0,0.0,86682.0,147406.0,6044.0,119885.0,2833.0,43506.0,2025.0,188739.0,0.0,,,,0.0
767,1.498046875,23,120.0,0.0,0.0,86682.0,147406.0,6044.0,119885.0,2833.0,43506.0,2025.0,188739.0,0.0,,,,0.0
768,1.5,24,-202.0,0.0,0.0,86682.0,147406.0,6044.0,119885.0,2833.0,43506.0,2025.0,188739.0,0.0,,,,0.0
769,1.501953125,24,-429.0,0.0,0.0,86682.0,147406.0,6044.0,119885.0,2833.0,43506.0,2025.0,188739.0,0.0,,,,0.0
770,1.50390625,24,-467.0,0.0,0.0,86682.0,147406.0,6044.0,119885.0,2833.0,43506.0,2025.0,188739.0,0.0,,,,0.0
771,1.505859375,24,-290.0,0.0,0.0,86682.0,147406.0,6044.0,119885.0,2833.0,43506.0,2025.0,188739.0,0.0,,,,0.0
772,1.5078125,24,-13.0,0.0,0.0,86682.0,147406.0,6044.0,119885.0,2833.0,43506.0,2025.0,188739.0,0.0,,,,0.0
773,1.509765625,24,257.0,0.0,0.0,86682.0,147406.0,6044.0,119885.0,2833.0,43506.0,2025.0,188739.0,0.0,,,,0.0
774,1.51171875,24,466.0,0.0,0.0,86682.0,147406.0,6044.0,119885.0,2833.0,43506.0,2025.0,188739.0,0.0,,,,0.0
775,1.513671875,24,548.0,0.0,0.0,86682.0,147406.0,6044.0,119885.0,2833.0,43506.0,2025.0,188739.0,0.0,,,,0.0
776,1.515625,24,473.0,0.0,0.0,86682.0,147406.0,6044.0,119885.0,2833.0,43506.0,2025.0,188739.0,0.0,,,,0.0
777,1.517578125,24,248.0,0.0,0.0,86682.0,147406.0,6044.0,119885.0,2833.0,43506.0,2025.0,188739.0,0.0,,,,0.0
778,1.51953125,24,-74.0,0.0,0.0,86682.0,147406.0,6044.0,119885.0,2833.0,43506.0,2025.0,188739.0,0.0,,,,0.0
779,1.521484375,24,-358.0,0.0,0.0,86682.0,147406.0,6044.0,119885.0,2833.0,43506.0,2025.0,188739.0,0.0,,,,0.0
780,1.5234375,24,-449.0,0.0,0.0,86682.0,147406.0,6044.0,119885.0,2833.0,43506.0,2025.0,188739.0,0.0,,,,0.0
781,1.525390625,24,-292.0,0.0,0.0,86682.0,147406.0,6044.0,119885.0,2833.0,43506.0,2025.0,188739.0,0.0,,,,0.0
782,1.52734375,24,-19.0,0.0,0.0,86682.0,147406.0,6044.0,119885.0,2833.0,43506.0,2025.0,188739.0,0.0,,,,0.0
783,1.529296875,24,209.0,0.0,0.0,86682.0,147406.0,6044.0,119885.0,2833.0,43506.0,2025.0,188739.0,0.0,,,,0.0
784,1.53125,24,365.0,0.0,0.0,86682.0,147406.0,6044.0,119885.0,2833.0,43506.0,2025.0,188739.0,0.0,,,,0.0
785,1.533203125,24,453.0,0.0,0.0,86682.0,147406.0,6044.0,119885.0,2833.0,43506.0,2025.0,188739.0,0.0,,,,0.0
786,1.53515625,24,442.0,0.0,0.0,86682.0,147406.0,6044.0,119885.0,2833.0,43506.0,2025.0,188739.0,0.0,,,,0.0
787,1.537109375,24,298.0,0.0,0.0,86682.0,147406.0,6044.0,119885.0,2833.0,43506.0,2025.0,188739.0,0.0,,,,0.0
788,1.5390625,24,8.0,0.0,0.0,86682.0,147406.0,6044.0,119885.0,2833.0,43506.0,2025.0,188739.0,0.0,,,,0.0
789,1.541015625,24,-314.0,0.0,0.0,86682.0,147406.0,6044.0,119885.0,2833.0,43506.0,2025.0,188739.0,0.0,,,,0.0
790,1.54296875,24,-507.0,0.0,0.0,86682.0,147406.0,6044.0,119885.0,2833.0,43506.0,2025.0,188739.0,0.0,,,,0.0
791,1.544921875,24,-441.0,0.0,0.0,86682.0,147406.0,6044.0,119885.0,2833.0,43506.0,2025.0,188739.0,0.0,,,,0.0
792,1.546875,24,-168.0,0.0,0.0,86682.0,147406.0,6044.0,119885.0,2833.0,43506.0,2025.0,188739.0,0.0,,,,0.0
793,1.548828125,24,112.0,0.0,0.0,86682.0,147406.0,6044.0,119885.0,2833.0,43506.0,2025.0,188739.0,0.0,,,,0.0
794,1.55078125,24,311.0,0.0,0.0,86682.0,147406.0,6044.0,119885.0,2833.0,43506.0,2025.0,188739.0,0.0,,,,0.0
795,1.552734375,24,437.0,0.0,0.0,86682.0,147406.0,6044.0,119885.0,2833.0,43506.0,2025.0,188739.0,0.0,,,,0.0
796,1.5546875,24,477.0,0.0,0.0,86682.0,147406.0,6044.0,119885.0,2833.0,43506.0,2025.0,188739.0,0.0,,,,0.0
797,1.556640625,24,381.0,0.0,0.0,86682.0,147406.0,6044.0,119885.0,2833.0,43506.0,2025.0,188739.0,0.0,,,,0.0
798,1.55859375,24,121.0,0.0,0.0,86682.0,147406.0,6044.0,119885.0,2833.0,43506.0,2025.0,188739.0,0.0,,,,0.0
799,1.560546875,24,-200.0,0.0,0.0,86682.0,147406.0,6044.0,119885.0,2833.0,43506.0,2025.0,188739.0,0.0,,,,0.0
800,1.5625,25,-414.0,0.0,0.0,86682.0,147406.0,6044.0,119885.0,2833.0,43506.0,2025.0,188739.0,0.0,,,,0.0
801,1.564453125,25,-409.0,0.0,0.0,86682.0,147406.0,6044.0,119885.0,2833.0,43506.0,2025.0,188739.0,0.0,,,,0.0
802,1.56640625,25,-189.0,0.0,0.0,86682.0,147406.0,6044.0,119885.0,2833.0,43506.0,2025.0,188739.0,0.0,,,,0.0
803,1.568359375,25,75.0,0.0,0.0,86682.0,147406.0,6044.0,119885.0,2833.0,43506.0,2025.0,188739.0,0.0,,,,0.0
804,1.5703125,25,280.0,0.0,0.0,86682.0,147406.0,6044.0,119885.0,2833.0,43506.0,2025.0,188739.0,0.0,,,,0.0
805,1.572265625,25,419.0,0.0,0.0,86682.0,147406.0,6044.0,119885.0,2833.0,43506.0,2025.0,188739.0,0.0,,,,0.0
806,1.57421875,25,477.0,0.0,0.0,86682.0,147406.0,6044.0,119885.0,2833.0,43506.0,2025.0,188739.0,0.0,,,,0.0
807,1.576171875,25,419.0,0.0,0.0,86682.0,147406.0,6044.0,119885.0,2833.0,43506.0,2025.0,188739.0,0.0,,,,0.0
808,1.578125,25,186.0,0.0,0.0,86682.0,147406.0,6044.0,119885.0,2833.0,43506.0,2025.0,188739.0,0.0,,,,0.0
809,1.580078125,25,-169.0,0.0,0.0,86682.0,147406.0,6044.0,119885.0,2833.0,43506.0,2025.0,188739.0,0.0,,,,0.0
810,1.58203125,25,-440.0,0.0,0.0,86682.0,147406.0,6044.0,119885.0,2833.0,43506.0,2025.0,188739.0,0.0,,,,0.0
811,1.583984375,25,-477.0,0.0,0.0,86682.0,147406.0,6044.0,119885.0,2833.0,43506.0,2025.0,188739.0,0.0,,,,0.0
812,1.5859375,25,-312.0,0.0,0.0,86682.0,147406.0,6044.0,119885.0,2833.0,43506.0,2025.0,188739.0,0.0,,,,0.0
813,1.587890625,25,-42.0,0.0,0.0,86682.0,147406.0,6044.0,119885.0,2833.0,43506.0,2025.0,188739.0,0.0,,,,0.0
814,1.58984375,25,224.0,0.0,0.0,86682.0,147406.0,6044.0,119885.0,2833.0,43506.0,2025.0,188739.0,0.0,,,,0.0
815,1.591796875,25,421.0,0.0,0.0,86682.0,147406.0,6044.0,119885.0,2833.0,43506.0,2025.0,188739.0,0.0,,,,0.0
816,1.59375,25,515.0,0.0,0.0,86682.0,147406.0,6044.0,119885.0,2833.0,43506.0,2025.0,188739.0,0.0,,,,0.0
817,1.595703125,25,490.0,0.0,0.0,86682.0,147406.0,6044.0,119885.0,2833.0,43506.0,2025.0,188739.0,0.0,,,,0.0
818,1.59765625,25,326.0,0.0,0.0,86682.0,147406.0,6044.0,119885.0,2833.0,43506.0,2025.0,188739.0,0.0,,,,0.0
819,1.599609375,25,3.0,0.0,0.0,86682.0,147406.0,6044.0,119885.0,2833.0,43506.0,2025.0,188739.0,0.0,,,,0.0
820,1.6015625,25,-327.0,0.0,0.0,86682.0,147406.0,6044.0,119885.0,2833.0,43506.0,2025.0,188739.0,0.0,,,,0.0
821,1.603515625,25,-488.0,0.0,0.0,86682.0,147406.0,6044.0,119885.0,2833.0,43506.0,2025.0,188739.0,0.0,,,,0.0
822,1.60546875,25,-398.0,0.0,0.0,86682.0,147406.0,6044.0,119885.0,2833.0,43506.0,2025.0,188739.0,0.0,,,,0.0
823,1.607421875,25,-125.0,0.0,0.0,86682.0,147406.0,6044.0,119885.0,2833.0,43506.0,2025.0,188739.0,0.0,,,,0.0
824,1.609375,25,140.0,0.0,0.0,86682.0,147406.0,6044.0,119885.0,2833.0,43506.0,2025.0,188739.0,0.0,,,,0.0
825,1.611328125,25,331.0,0.0,0.0,86682.0,147406.0,6044.0,119885.0,2833.0,43506.0,2025.0,188739.0,0.0,,,,0.0
826,1.61328125,25,440.0,0.0,0.0,86682.0,147406.0,6044.0,119885.0,2833.0,43506.0,2025.0,188739.0,0.0,,,,0.0
827,1.615234375,25,474.0,0.0,0.0,86682.0,147406.0,6044.0,119885.0,2833.0,43506.0,2025.0,188739.0,0.0,,,,0.0
828,1.6171875,25,384.0,0.0,0.0,86682.0,147406.0,6044.0,119885.0,2833.0,43506.0,2025.0,188739.0,0.0,,,,0.0
829,1.619140625,25,105.0,0.0,0.0,86682.0,147406.0,6044.0,119885.0,2833.0,43506.0,2025.0,188739.0,0.0,,,,0.0
830,1.62109375,25,-257.0,0.0,0.0,86682.0,147406.0,6044.0,119885.0,2833.0,43506.0,2025.0,188739.0,0.0,,,,0.0
831,1.623046875,25,-478.0,0.0,0.0,86682.0,147406.0,6044.0,119885.0,2833.0,43506.0,2025.0,188739.0,0.0,,,,0.0
832,1.625,26,-427.0,0.0,0.0,86682.0,147406.0,6044.0,119885.0,2833.0,43506.0,2025.0,188739.0,0.0,,,,0.0
833,1.626953125,26,-182.0,0.0,0.0,86682.0,147406.0,6044.0,119885.0,2833.0,43506.0,2025.0,188739.0,0.0,,,,0.0
834,1.62890625,26,82.0,0.0,0.0,86682.0,147406.0,6044.0,119885.0,2833.0,43506.0,2025.0,188739.0,0.0,,,,0.0
835,1.630859375,26,285.0,0.0,0.0,86682.0,147406.0,6044.0,119885.0,2833.0,43506.0,2025.0,188739.0,0.0,,,,0.0
836,1.6328125,26,426.0,0.0,0.0,86682.0,147406.0,6044.0,119885.0,2833.0,43506.0,2025.0,188739.0,0.0,,,,0.0
837,1.634765625,26,488.0,0.0,0.0,86682.0,147406.0,6044.0,119885.0,2833.0,43506.0,2025.0,188739.0,0.0,,,,0.0
838,1.63671875,26,417.0,0.0,0.0,86682.0,147406.0,6044.0,119885.0,2833.0,43506.0,2025.0,188739.0,0.0,,,,0.0
839,1.638671875,26,160.0,0.0,0.0,86682.0,147406.0,6044.0,119885.0,2833.0,43506.0,2025.0,188739.0,0.0,,,,0.0
840,1.640625,26,-201.0,0.0,0.0,86682.0,147406.0,6044.0,119885.0,2833.0,43506.0,2025.0,188739.0,0.0,,,,0.0
841,1.642578125,26,-472.0,0.0,0.0,86682.0,147406.0,6044.0,119885.0,2833.0,43506.0,2025.0,188739.0,0.0,,,,0.0
842,1.64453125,26,-513.0,0.0,0.0,86682.0,147406.0,6044.0,119885.0,2833.0,43506.0,2025.0,188739.0,0.0,,,,0.0
843,1.646484375,26,-328.0,0.0,0.0,86682.0,147406.0,6044.0,119885.0,2833.0,43506.0,2025.0,188739.0,0.0,,,,0.0
844,1.6484375,26,-65.0,0.0,0.0,86682.0,147406.0,6044.0,119885.0,2833.0,43506.0,2025.0,188739.0,0.0,,,,0.0
845,1.650390625,26,177.0,0.0,0.0,86682.0,147406.0,6044.0,119885.0,2833.0,43506.0,2025.0,188739.0,0.0,,,,0.0
846,1.65234375,26,380.0,0.0,0.0,86682.0,147406.0,6044.0,119885.0,2833.0,43506.0,2025.0,188739.0,0.0,,,,0.0
847,1.654296875,26,499.0,0.0,0.0,86682.0,147406.0,6044.0,119885.0,2833.0,43506.0,2025.0,188739.0,0.0,,,,0.0
848,1.65625,26,466.0,0.0,0.0,86682.0,147406.0,6044.0,119885.0,2833.0,43506.0,2025.0,188739.0,0.0,,,,0.0
849,1.658203125,26,264.0,0.0,0.0,86682.0,147406.0,6044.0,119885.0,2833.0,43506.0,2025.0,188739.0,0.0,,,,0.0
850,1.66015625,26,-71.0,0.0,0.0,86682.0,147406.0,6044.0,119885.0,2833.0,43506.0,2025.0,188739.0,0.0,,,,0.0
851,1.662109375,26,-390.0,0.0,0.0,86682.0,147406.0,6044.0,119885.0,2833.0,43506.0,2025.0,188739.0,0.0,,,,0.0
852,1.6640625,26,-392.0,0.0,0.0,86682.0,147406.0,6044.0,119885.0,2833.0,43506.0,2025.0,188739.0,0.0,,,,0.0
853,1.666015625,26,-137.0,0.0,0.0,86682.0,147406.0,6044.0,119885.0,2833.0,43506.0,2025.0,188739.0,0.0,,,,0.0
854,1.66796875,26,131.0,0.0,0.0,86682.0,147406.0,6044.0,119885.0,2833.0,43506.0,2025.0,188739.0,0.0,,,,0.0
855,1.669921875,26,339.0,0.0,0.0,86682.0,147406.0,6044.0,119885.0,2833.0,43506.0,2025.0,188739.0,0.0,,,,0.0
856,1.671875,26,448.0,0.0,0.0,86682.0,147406.0,6044.0,119885.0,2833.0,43506.0,2025.0,188739.0,0.0,,,,0.0
857,1.673828125,26,455.0,0.0,0.0,86682.0,147406.0,6044.0,119885.0,2833.0,43506.0,2025.0,188739.0,0.0,,,,0.0
858,1.67578125,26,339.0,0.0,0.0,86682.0,147406.0,6044.0,119885.0,2833.0,43506.0,2025.0,188739.0,0.0,,,,0.0
859,1.677734375,26,70.0,0.0,0.0,86682.0,147406.0,6044.0,119885.0,2833.0,43506.0,2025.0,188739.0,0.0,,,,0.0
860,1.6796875,26,-262.0,0.0,0.0,86682.0,147406.0,6044.0,119885.0,2833.0,43506.0,2025.0,188739.0,0.0,,,,0.0
861,1.681640625,26,-481.0,0.0,0.0,86682.0,147406.0,6044.0,119885.0,2833.0,43506.0,2025.0,188739.0,0.0,,,,0.0
862,1.68359375,26,-434.0,0.0,0.0,86682.0,147406.0,6044.0,119885.0,2833.0,43506.0,2025.0,188739.0,0.0,,,,0.0
863,1.685546875,26,-188.0,0.0,0.0,86682.0,147406.0,6044.0,119885.0,2833.0,43506.0,2025.0,188739.0,0.0,,,,0.0
864,1.6875,27,64.0,0.0,0.0,86682.0,147406.0,6044.0,119885.0,2833.0,43506.0,2025.0,188739.0,0.0,,,,0.0
865,1.689453125,27,243.0,0.0,0.0,86682.0,147406.0,6044.0,119885.0,2833.0,43506.0,2025.0,188739.0,0.0,,,,0.0
866,1.69140625,27,360.0,0.0,0.0,86682.0,147406.0,6044.0,119885.0,2833.0,43506.0,2025.0,188739.0,0.0,,,,0.0
867,1.693359375,27,433.0,0.0,0.0,86682.0,147406.0,6044.0,119885.0,2833.0,43506.0,2025.0,188739.0,0.0,,,,0.0
868,1.6953125,27,389.0,0.0,0.0,86682.0,147406.0,6044.0,119885.0,2833.0,43506.0,2025.0,188739.0,0.0,,,,0.0
869,1.697265625,27,154.0,0.0,0.0,86682.0,147406.0,6044.0,119885.0,2833.0,43506.0,2025.0,188739.0,0.0,,,,0.0
870,1.69921875,27,-187.0,0.0,0.0,86682.0,147406.0,6044.0,119885.0,2833.0,43506.0,2025.0,188739.0,0.0,,,,0.0
871,1.701171875,27,-449.0,0.0,0.0,86682.0,147406.0,6044.0,119885.0,2833.0,43506.0,2025.0,188739.0,0.0,,,,0.0
872,1.703125,27,-484.0,0.0,0.0,86682.0,147406.0,6044.0,119885.0,2833.0,43506.0,2025.0,188739.0,0.0,,,,0.0
873,1.705078125,27,-294.0,0.0,0.0,86682.0,147406.0,6044.0,119885.0,2833.0,43506.0,2025.0,188739.0,0.0,,,,0.0
874,1.70703125,27,-33.0,0.0,0.0,86682.0,147406.0,6044.0,119885.0,2833.0,43506.0,2025.0,188739.0,0.0,,,,0.0
875,1.708984375,27,199.0,0.0,0.0,86682.0,147406.0,6044.0,119885.0,2833.0,43506.0,2025.0,188739.0,0.0,,,,0.0
876,1.7109375,27,390.0,0.0,0.0,86682.0,147406.0,6044.0,119885.0,2833.0,43506.0,2025.0,188739.0,0.0,,,,0.0
877,1.712890625,27,481.0,0.0,0.0,86682.0,147406.0,6044.0,119885.0,2833.0,43506.0,2025.0,188739.0,0.0,,,,0.0
878,1.71484375,27,422.0,0.0,0.0,86682.0,147406.0,6044.0,119885.0,2833.0,43506.0,2025.0,188739.0,0.0,,,,0.0
879,1.716796875,27,198.0,0.0,0.0,86682.0,147406.0,6044.0,119885.0,2833.0,43506.0,2025.0,188739.0,0.0,,,,0.0
880,1.71875,27,-135.0,0.0,0.0,86682.0,147406.0,6044.0,119885.0,2833.0,43506.0,2025.0,188739.0,0.0,,,,0.0
881,1.720703125,27,-408.0,0.0,0.0,86682.0,147406.0,6044.0,119885.0,2833.0,43506.0,2025.0,188739.0,0.0,,,,0.0
882,1.72265625,27,-487.0,0.0,0.0,86682.0,147406.0,6044.0,119885.0,2833.0,43506.0,2025.0,188739.0,0.0,,,,0.0
883,1.724609375,27,-346.0,0.0,0.0,86682.0,147406.0,6044.0,119885.0,2833.0,43506.0,2025.0,188739.0,0.0,,,,0.0
884,1.7265625,27,-97.0,0.0,0.0,86682.0,147406.0,6044.0,119885.0,2833.0,43506.0,2025.0,188739.0,0.0,,,,0.0
885,1.728515625,27,147.0,0.0,0.0,86682.0,147406.0,6044.0,119885.0,2833.0,43506.0,2025.0,188739.0,0.0,,,,0.0
886,1.73046875,27,349.0,0.0,0.0,86682.0,147406.0,6044.0,119885.0,2833.0,43506.0,2025.0,188739.0,0.0,,,,0.0
887,1.732421875,27,481.0,0.0,0.0,86682.0,147406.0,6044.0,119885.0,2833.0,43506.0,2025.0,188739.0,0.0,,,,0.0
888,1.734375,27,487.0,0.0,0.0,86682.0,147406.0,6044.0,119885.0,2833.0,43506.0,2025.0,188739.0,0.0,,,,0.0
889,1.736328125,27,332.0,0.0,0.0,86682.0,147406.0,6044.0,119885.0,2833.0,43506.0,2025.0,188739.0,0.0,,,,0.0
890,1.73828125,27,27.0,0.0,0.0,86682.0,147406.0,6044.0,119885.0,2833.0,43506.0,2025.0,188739.0,0.0,,,,0.0
891,1.740234375,27,-308.0,0.0,0.0,86682.0,147406.0,6044.0,119885.0,2833.0,43506.0,2025.0,188739.0,0.0,,,,0.0
892,1.7421875,27,-507.0,0.0,0.0,86682.0,147406.0,6044.0,119885.0,2833.0,43506.0,2025.0,188739.0,0.0,,,,0.0
893,1.744140625,27,-452.0,0.0,0.0,86682.0,147406.0,6044.0,119885.0,2833.0,43506.0,2025.0,188739.0,0.0,,,,0.0
894,1.74609375,27,-194.0,0.0,0.0,86682.0,147406.0,6044.0,119885.0,2833.0,43506.0,2025.0,188739.0,0.0,,,,0.0
895,1.748046875,27,88.0,0.0,0.0,86682.0,147406.0,6044.0,119885.0,2833.0,43506.0,2025.0,188739.0,0.0,,,,0.0
896,1.75,28,306.0,0.0,0.0,86682.0,147406.0,6044.0,119885.0,2833.0,43506.0,2025.0,188739.0,0.0,,,,0.0
897,1.751953125,28,428.0,0.0,0.0,86682.0,147406.0,6044.0,119885.0,2833.0,43506.0,2025.0,188739.0,0.0,,,,0.0
898,1.75390625,28,455.0,0.0,0.0,86682.0,147406.0,6044.0,119885.0,2833.0,43506.0,2025.0,188739.0,0.0,,,,0.0
899,1.755859375,28,363.0,0.0,0.0,86682.0,147406.0,6044.0,119885.0,2833.0,43506.0,2025.0,188739.0,0.0,,,,0.0
900,1.7578125,28,121.0,0.0,0.0,86682.0,147406.0,6044.0,119885.0,2833.0,43506.0,2025.0,188739.0,0.0,,,,0.0
901,1.759765625,28,-217.0,0.0,0.0,86682.0,147406.0,6044.0,119885.0,2833.0,43506.0,2025.0,188739.0,0.0,,,,0.0
902,1.76171875,28,-490.0,0.0,0.0,86682.0,147406.0,6044.0,119885.0,2833.0,43506.0,2025.0,188739.0,0.0,,,,0.0
903,1.763671875,28,-523.0,0.0,0.0,86682.0,147406.0,6044.0,119885.0,2833.0,43506.0,2025.0,188739.0,0.0,,,,0.0
904,1.765625,28,-321.0,0.0,0.0,86682.0,147406.0,6044.0,119885.0,2833.0,43506.0,2025.0,188739.0,0.0,,,,0.0
905,1.767578125,28,-29.0,0.0,0.0,86682.0,147406.0,6044.0,119885.0,2833.0,43506.0,2025.0,188739.0,0.0,,,,0.0
906,1.76953125,28,211.0,0.0,0.0,86682.0,147406.0,6044.0,119885.0,2833.0,43506.0,2025.0,188739.0,0.0,,,,0.0
907,1.771484375,28,387.0,0.0,0.0,86682.0,147406.0,6044.0,119885.0,2833.0,43506.0,2025.0,188739.0,0.0,,,,0.0
908,1.7734375,28,485.0,0.0,0.0,86682.0,147406.0,6044.0,119885.0,2833.0,43506.0,2025.0,188739.0,0.0,,,,0.0
909,1.775390625,28,448.0,0.0,0.0,86682.0,147406.0,6044.0,119885.0,2833.0,43506.0,2025.0,188739.0,0.0,,,,0.0
910,1.77734375,28,234.0,0.0,0.0,86682.0,147406.0,6044.0,119885.0,2833.0,43506.0,2025.0,188739.0,0.0,,,,0.0
911,1.779296875,28,-94.0,0.0,0.0,86682.0,147406.0,6044.0,119885.0,2833.0,43506.0,2025.0,188739.0,0.0,,,,0.0
912,1.78125,28,-373.0,0.0,0.0,86682.0,147406.0,6044.0,119885.0,2833.0,43506.0,2025.0,188739.0,0.0,,,,0.0
913,1.783203125,28,-455.0,0.0,0.0,86682.0,147406.0,6044.0,119885.0,2833.0,43506.0,2025.0,188739.0,0.0,,,,0.0
914,1.78515625,28,-321.0,0.0,0.0,86682.0,147406.0,6044.0,119885.0,2833.0,43506.0,2025.0,188739.0,0.0,,,,0.0
915,1.787109375,28,-65.0,0.0,0.0,86682.0,147406.0,6044.0,119885.0,2833.0,43506.0,2025.0,188739.0,0.0,,,,0.0
916,1.7890625,28,212.0,0.0,0.0,86682.0,147406.0,6044.0,119885.0,2833.0,43506.0,2025.0,188739.0,0.0,,,,0.0
917,1.791015625,28,439.0,0.0,0.0,86682.0,147406.0,6044.0,119885.0,2833.0,43506.0,2025.0,188739.0,0.0,,,,0.0
918,1.79296875,28,556.0,0.0,0.0,86682.0,147406.0,6044.0,119885.0,2833.0,43506.0,2025.0,188739.0,0.0,,,,0.0
919,1.794921875,28,530.0,0.0,0.0,86682.0,147406.0,6044.0,119885.0,2833.0,43506.0,2025.0,188739.0,0.0,,,,0.0
920,1.796875,28,342.0,0.0,0.0,86682.0,147406.0,6044.0,119885.0,2833.0,43506.0,2025.0,188739.0,0.0,,,,0.0
921,1.798828125,28,16.0,0.0,0.0,86682.0,147406.0,6044.0,119885.0,2833.0,43506.0,2025.0,188739.0,0.0,,,,0.0
922,1.80078125,28,-327.0,0.0,0.0,86682.0,147406.0,6044.0,119885.0,2833.0,43506.0,2025.0,188739.0,0.0,,,,0.0
923,1.802734375,28,-514.0,0.0,0.0,86682.0,147406.0,6044.0,119885.0,2833.0,43506.0,2025.0,188739.0,0.0,,,,0.0
924,1.8046875,28,-446.0,0.0,0.0,86682.0,147406.0,6044.0,119885.0,2833.0,43506.0,2025.0,188739.0,0.0,,,,0.0
925,1.806640625,28,-187.0,0.0,0.0,86682.0,147406.0,6044.0,119885.0,2833.0,43506.0,2025.0,188739.0,0.0,,,,0.0
926,1.80859375,28,96.0,0.0,0.0,86682.0,147406.0,6044.0,119885.0,2833.0,43506.0,2025.0,188739.0,0.0,,,,0.0
927,1.810546875,28,326.0,0.0,0.0,86682.0,147406.0,6044.0,119885.0,2833.0,43506.0,2025.0,188739.0,0.0,,,,0.0
928,1.8125,29,474.0,0.0,0.0,86682.0,147406.0,6044.0,119885.0,2833.0,43506.0,2025.0,188739.0,0.0,,,,0.0
929,1.814453125,29,520.0,0.0,0.0,86682.0,147406.0,6044.0,119885.0,2833.0,43506.0,2025.0,188739.0,0.0,,,,0.0
930,1.81640625,29,413.0,0.0,0.0,86682.0,147406.0,6044.0,119885.0,2833.0,43506.0,2025.0,188739.0,0.0,,,,0.0
931,1.818359375,29,125.0,0.0,0.0,86682.0,147406.0,6044.0,119885.0,2833.0,43506.0,2025.0,188739.0,0.0,,,,0.0
932,1.8203125,29,-227.0,0.0,0.0,86682.0,147406.0,6044.0,119885.0,2833.0,43506.0,2025.0,188739.0,0.0,,,,0.0
933,1.822265625,29,-438.0,0.0,0.0,86682.0,147406.0,6044.0,119885.0,2833.0,43506.0,2025.0,188739.0,0.0,,,,0.0
934,1.82421875,29,-390.0,0.0,0.0,86682.0,147406.0,6044.0,119885.0,2833.0,43506.0,2025.0,188739.0,0.0,,,,0.0
935,1.826171875,29,-157.0,0.0,0.0,86682.0,147406.0,6044.0,119885.0,2833.0,43506.0,2025.0,188739.0,0.0,,,,0.0
936,1.828125,29,89.0,0.0,0.0,86682.0,147406.0,6044.0,119885.0,2833.0,43506.0,2025.0,188739.0,0.0,,,,0.0
937,1.830078125,29,299.0,0.0,0.0,86682.0,147406.0,6044.0,119885.0,2833.0,43506.0,2025.0,188739.0,0.0,,,,0.0
938,1.83203125,29,437.0,0.0,0.0,86682.0,147406.0,6044.0,119885.0,2833.0,43506.0,2025.0,188739.0,0.0,,,,0.0
939,1.833984375,29,490.0,0.0,0.0,86682.0,147406.0,6044.0,119885.0,2833.0,43506.0,2025.0,188739.0,0.0,,,,0.0
940,1.8359375,29,450.0,0.0,0.0,86682.0,147406.0,6044.0,119885.0,2833.0,43506.0,2025.0,188739.0,0.0,,,,0.0
941,1.837890625,29,245.0,0.0,0.0,86682.0,147406.0,6044.0,119885.0,2833.0,43506.0,2025.0,188739.0,0.0,,,,0.0
942,1.83984375,29,-90.0,0.0,0.0,86682.0,147406.0,6044.0,119885.0,2833.0,43506.0,2025.0,188739.0,0.0,,,,0.0
943,1.841796875,29,-394.0,0.0,0.0,86682.0,147406.0,6044.0,119885.0,2833.0,43506.0,2025.0,188739.0,0.0,,,,0.0
944,1.84375,29,-477.0,0.0,0.0,86682.0,147406.0,6044.0,119885.0,2833.0,43506.0,2025.0,188739.0,0.0,,,,0.0
945,1.845703125,29,-311.0,0.0,0.0,86682.0,147406.0,6044.0,119885.0,2833.0,43506.0,2025.0,188739.0,0.0,,,,0.0
946,1.84765625,29,-43.0,0.0,0.0,86682.0,147406.0,6044.0,119885.0,2833.0,43506.0,2025.0,188739.0,0.0,,,,0.0
947,1.849609375,29,197.0,0.0,0.0,86682.0,147406.0,6044.0,119885.0,2833.0,43506.0,2025.0,188739.0,0.0,,,,0.0
948,1.8515625,29,384.0,0.0,0.0,86682.0,147406.0,6044.0,119885.0,2833.0,43506.0,2025.0,188739.0,0.0,,,,0.0
949,1.853515625,29,487.0,0.0,0.0,86682.0,147406.0,6044.0,119885.0,2833.0,43506.0,2025.0,188739.0,0.0,,,,0.0
950,1.85546875,29,475.0,0.0,0.0,86682.0,147406.0,6044.0,119885.0,2833.0,43506.0,2025.0,188739.0,0.0,,,,0.0
951,1.857421875,29,308.0,0.0,0.0,86682.0,147406.0,6044.0,119885.0,2833.0,43506.0,2025.0,188739.0,0.0,,,,0.0
952,1.859375,29,7.0,0.0,0.0,86682.0,147406.0,6044.0,119885.0,2833.0,43506.0,2025.0,188739.0,0.0,,,,0.0
953,1.861328125,29,-305.0,0.0,0.0,86682.0,147406.0,6044.0,119885.0,2833.0,43506.0,2025.0,188739.0,0.0,,,,0.0
954,1.86328125,29,-474.0,0.0,0.0,86682.0,147406.0,6044.0,119885.0,2833.0,43506.0,2025.0,188739.0,0.0,,,,0.0
955,1.865234375,29,-391.0,0.0,0.0,86682.0,147406.0,6044.0,119885.0,2833.0,43506.0,2025.0,188739.0,0.0,,,,0.0
956,1.8671875,29,-125.0,0.0,0.0,86682.0,147406.0,6044.0,119885.0,2833.0,43506.0,2025.0,188739.0,0.0,,,,0.0
957,1.869140625,29,163.0,0.0,0.0,86682.0,147406.0,6044.0,119885.0,2833.0,43506.0,2025.0,188739.0,0.0,,,,0.0
958,1.87109375,29,390.0,0.0,0.0,86682.0,147406.0,6044.0,119885.0,2833.0,43506.0,2025.0,188739.0,0.0,,,,0.0
959,1.873046875,29,514.0,0.0,0.0,86682.0,147406.0,6044.0,119885.0,2833.0,43506.0,2025.0,188739.0,0.0,,,,0.0
960,1.875,30,519.0,0.0,0.0,86682.0,147406.0,6044.0,119885.0,2833.0,43506.0,2025.0,188739.0,0.0,,,,0.0
961,1.876953125,30,379.0,0.0,0.0,86682.0,147406.0,6044.0,119885.0,2833.0,43506.0,2025.0,188739.0,0.0,,,,0.0
962,1.87890625,30,80.0,0.0,0.0,86682.0,147406.0,6044.0,119885.0,2833.0,43506.0,2025.0,188739.0,0.0,,,,0.0
963,1.880859375,30,-275.0,0.0,0.0,86682.0,147406.0,6044.0,119885.0,2833.0,43506.0,2025.0,188739.0,0.0,,,,0.0
964,1.8828125,30,-485.0,0.0,0.0,86682.0,147406.0,6044.0,119885.0,2833.0,43506.0,2025.0,188739.0,0.0,,,,0.0
965,1.884765625,30,-445.0,0.0,0.0,86682.0,147406.0,6044.0,119885.0,2833.0,43506.0,2025.0,188739.0,0.0,,,,0.0
966,1.88671875,30,-211.0,0.0,0.0,86682.0,147406.0,6044.0,119885.0,2833.0,43506.0,2025.0,188739.0,0.0,,,,0.0
967,1.888671875,30,56.0,0.0,0.0,86682.0,147406.0,6044.0,119885.0,2833.0,43506.0,2025.0,188739.0,0.0,,,,0.0
968,1.890625,30,274.0,0.0,0.0,86682.0,147406.0,6044.0,119885.0,2833.0,43506.0,2025.0,188739.0,0.0,,,,0.0
969,1.892578125,30,417.0,0.0,0.0,86682.0,147406.0,6044.0,119885.0,2833.0,43506.0,2025.0,188739.0,0.0,,,,0.0
970,1.89453125,30,480.0,0.0,0.0,86682.0,147406.0,6044.0,119885.0,2833.0,43506.0,2025.0,188739.0,0.0,,,,0.0
971,1.896484375,30,427.0,0.0,0.0,86682.0,147406.0,6044.0,119885.0,2833.0,43506.0,2025.0,188739.0,0.0,,,,0.0
972,1.8984375,30,203.0,0.0,0.0,86682.0,147406.0,6044.0,119885.0,2833.0,43506.0,2025.0,188739.0,0.0,,,,0.0
973,1.900390625,30,-137.0,0.0,0.0,86682.0,147406.0,6044.0,119885.0,2833.0,43506.0,2025.0,188739.0,0.0,,,,0.0
974,1.90234375,30,-424.0,0.0,0.0,86682.0,147406.0,6044.0,119885.0,2833.0,43506.0,2025.0,188739.0,0.0,,,,0.0
975,1.904296875,30,-492.0,0.0,0.0,86682.0,147406.0,6044.0,119885.0,2833.0,43506.0,2025.0,188739.0,0.0,,,,0.0
976,1.90625,30,-344.0,0.0,0.0,86682.0,147406.0,6044.0,119885.0,2833.0,43506.0,2025.0,188739.0,0.0,,,,0.0
977,1.908203125,30,-102.0,0.0,0.0,86682.0,147406.0,6044.0,119885.0,2833.0,43506.0,2025.0,188739.0,0.0,,,,0.0
978,1.91015625,30,141.0,0.0,0.0,86682.0,147406.0,6044.0,119885.0,2833.0,43506.0,2025.0,188739.0,0.0,,,,0.0
979,1.912109375,30,357.0,0.0,0.0,86682.0,147406.0,6044.0,119885.0,2833.0,43506.0,2025.0,188739.0,0.0,,,,0.0
980,1.9140625,30,502.0,0.0,0.0,86682.0,147406.0,6044.0,119885.0,2833.0,43506.0,2025.0,188739.0,0.0,,,,0.0
981,1.916015625,30,500.0,0.0,0.0,86682.0,147406.0,6044.0,119885.0,2833.0,43506.0,2025.0,188739.0,0.0,,,,0.0
982,1.91796875,30,309.0,0.0,0.0,86682.0,147406.0,6044.0,119885.0,2833.0,43506.0,2025.0,188739.0,0.0,,,,0.0
983,1.919921875,30,-27.0,0.0,0.0,86682.0,147406.0,6044.0,119885.0,2833.0,43506.0,2025.0,188739.0,0.0,,,,0.0
984,1.921875,30,-346.0,0.0,0.0,86682.0,147406.0,6044.0,119885.0,2833.0,43506.0,2025.0,188739.0,0.0,,,,0.0
985,1.923828125,30,-468.0,0.0,0.0,86682.0,147406.0,6044.0,119885.0,2833.0,43506.0,2025.0,188739.0,0.0,,,,0.0
986,1.92578125,30,-355.0,0.0,0.0,86682.0,147406.0,6044.0,119885.0,2833.0,43506.0,2025.0,188739.0,0.0,,,,0.0
987,1.927734375,30,-119.0,0.0,0.0,86682.0,147406.0,6044.0,119885.0,2833.0,43506.0,2025.0,188739.0,0.0,,,,0.0
988,1.9296875,30,137.0,0.0,0.0,86682.0,147406.0,6044.0,119885.0,2833.0,43506.0,2025.0,188739.0,0.0,,,,0.0
989,1.931640625,30,364.0,0.0,0.0,86682.0,147406.0,6044.0,119885.0,2833.0,43506.0,2025.0,188739.0,0.0,,,,0.0
990,1.93359375,30,500.0,0.0,0.0,86682.0,147406.0,6044.0,119885.0,2833.0,43506.0,2025.0,188739.0,0.0,,,,0.0
991,1.935546875,30,508.0,0.0,0.0,86682.0,147406.0,6044.0,119885.0,2833.0,43506.0,2025.0,188739.0,0.0,,,,0.0
992,1.9375,31,370.0,0.0,0.0,86682.0,147406.0,6044.0,119885.0,2833.0,43506.0,2025.0,188739.0,0.0,,,,0.0
993,1.939453125,31,65.0,0.0,0.0,86682.0,147406.0,6044.0,119885.0,2833.0,43506.0,2025.0,188739.0,0.0,,,,0.0
994,1.94140625,31,-284.0,0.0,0.0,86682.0,147406.0,6044.0,119885.0,2833.0,43506.0,2025.0,188739.0,0.0,,,,0.0
995,1.943359375,31,-505.0,0.0,0.0,86682.0,147406.0,6044.0,119885.0,2833.0,43506.0,2025.0,188739.0,0.0,,,,0.0
996,1.9453125,31,-465.0,0.0,0.0,86682.0,147406.0,6044.0,119885.0,2833.0,43506.0,2025.0,188739.0,0.0,,,,0.0
997,1.947265625,31,-204.0,0.0,0.0,86682.0,147406.0,6044.0,119885.0,2833.0,43506.0,2025.0,188739.0,0.0,,,,0.0
998,1.94921875,31,74.0,0.0,0.0,86682.0,147406.0,6044.0,119885.0,2833.0,43506.0,2025.0,188739.0,0.0,,,,0.0
999,1.951171875,31,285.0,0.0,0.0,86682.0,147406.0,6044.0,119885.0,2833.0,43506.0,2025.0,188739.0,0.0,,,,0.0
1000,1.953125,31,421.0,0.0,0.0,86682.0,147406.0,6044.0,119885.0,2833.0,43506.0,2025.0,188739.0,0.0,,,,0.0
1001,1.955078125,31,488.0,0.0,0.0,86682.0,147406.0,6044.0,119885.0,2833.0,43506.0,2025.0,188739.0,0.0,,,,0.0
1002,1.95703125,31,439.0,0.0,0.0,86682.0,147406.0,6044.0,119885.0,2833.0,43506.0,2025.0,188739.0,0.0,,,,0.0
1003,1.958984375,31,202.0,0.0,0.0,86682.0,147406.0,6044.0,119885.0,2833.0,43506.0,2025.0,188739.0,0.0,,,,0.0
1004,1.9609375,31,-148.0,0.0,0.0,86682.0,147406.0,6044.0,119885.0,2833.0,43506.0,2025.0,188739.0,0.0,,,,0.0
1005,1.962890625,31,-422.0,0.0,0.0,86682.0,147406.0,6044.0,119885.0,2833.0,43506.0,2025.0,188739.0,0.0,,,,0.0
1006,1.96484375,31,-456.0,0.0,0.0,86682.0,147406.0,6044.0,119885.0,2833.0,43506.0,2025.0,188739.0,0.0,,,,0.0
1007,1.966796875,31,-257.0,0.0,0.0,86682.0,147406.0,6044.0,119885.0,2833.0,43506.0,2025.0,188739.0,0.0,,,,0.0
1008,1.96875,31,1.0,0.0,0.0,86682.0,147406.0,6044.0,119885.0,2833.0,43506.0,2025.0,188739.0,0.0,,,,0.0
1009,1.970703125,31,209.0,0.0,0.0,86682.0,147406.0,6044.0,119885.0,2833.0,43506.0,2025.0,188739.0,0.0,,,,0.0
1010,1.97265625,31,364.0,0.0,0.0,86682.0,147406.0,6044.0,119885.0,2833.0,43506.0,2025.0,188739.0,0.0,,,,0.0
1011,1.974609375,31,467.0,0.0,0.0,86682.0,147406.0,6044.0,119885.0,2833.0,43506.0,2025.0,188739.0,0.0,,,,0.0
1012,1.9765625,31,454.0,0.0,0.0,86682.0,147406.0,6044.0,119885.0,2833.0,43506.0,2025.0,188739.0,0.0,,,,0.0
1013,1.978515625,31,-84.0,0.0,0.0,86682.0,147406.0,6044.0,119885.0,2833.0,43506.0,2025.0,188739.0,0.0,,,,0.0
1014,1.98046875,31,-387.0,0.0,0.0,86682.0,147406.0,6044.0,119885.0,2833.0,43506.0,2025.0,188739.0,0.0,,,,0.0
1015,1.982421875,31,-503.0,0.0,0.0,86682.0,147406.0,6044.0,119885.0,2833.0,43506.0,2025.0,188739.0,0.0,,,,0.0
1016,1.984375,31,-373.0,0.0,0.0,86682.0,147406.0,6044.0,119885.0,2833.0,43506.0,2025.0,188739.0,0.0,,,,0.0
1017,1.986328125,31,-107.0,0.0,0.0,86682.0,147406.0,6044.0,119885.0,2833.0,43506.0,2025.0,188739.0,0.0,,,,0.0
1018,1.98828125,31,169.0,0.0,0.0,86682.0,147406.0,6044.0,119885.0,2833.0,43506.0,2025.0,188739.0,0.0,,,,0.0
1019,1.990234375,31,391.0,0.0,0.0,86682.0,147406.0,6044.0,119885.0,2833.0,43506.0,2025.0,188739.0,0.0,,,,0.0
1020,1.9921875,31,498.0,0.0,0.0,86682.0,147406.0,6044.0,119885.0,2833.0,43506.0,2025.0,188739.0,0.0,,,,0.0
1021,1.994140625,31,484.0,0.0,0.0,86682.0,147406.0,6044.0,119885.0,2833.0,43506.0,2025.0,188739.0,0.0,,,,0.0
1022,1.99609375,31,347.0,0.0,0.0,86682.0,147406.0,6044.0,119885.0,2833.0,43506.0,2025.0,188739.0,0.0,,,,0.0
1023,1.998046875,31,71.0,0.0,0.0,86682.0,147406.0,6044.0,119885.0,2833.0,43506.0,2025.0,188739.0,0.0,,,,0.0
1024,2.0,32,-254.0,0.0,0.0,86682.0,147406.0,6044.0,119885.0,2833.0,43506.0,2025.0,188739.0,0.0,,,,0.0
1025,2.001953125,32,-478.0,0.0,0.0,86682.0,147406.0,6044.0,119885.0,2833.0,43506.0,2025.0,188739.0,0.0,,,,0.0
1026,2.00390625,32,-473.0,0.0,0.0,86682.0,147406.0,6044.0,119885.0,2833.0,43506.0,2025.0,188739.0,0.0,,,,0.0
1027,2.005859375,32,-270.0,0.0,0.0,86682.0,147406.0,6044.0,119885.0,2833.0,43506.0,2025.0,188739.0,0.0,,,,0.0
1028,2.0078125,32,-4.0,0.0,0.0,86682.0,147406.0,6044.0,119885.0,2833.0,43506.0,2025.0,188739.0,0.0,,,,0.0
1029,2.009765625,32,242.0,0.0,0.0,86682.0,147406.0,6044.0,119885.0,2833.0,43506.0,2025.0,188739.0,0.0,,,,0.0
1030,2.01171875,32,432.0,0.0,0.0,86682.0,147406.0,6044.0,119885.0,2833.0,43506.0,2025.0,188739.0,0.0,,,,0.0
1031,2.013671875,32,513.0,0.0,0.0,86682.0,147406.0,6044.0,119885.0,2833.0,43506.0,2025.0,188739.0,0.0,,,,0.0
1032,2.015625,32,441.0,0.0,0.0,86682.0,147406.0,6044.0,119885.0,2833.0,43506.0,2025.0,188739.0,0.0,,,,0.0
1033,2.017578125,32,200.0,0.0,0.0,504337.0,1561956.0,11337.0,338786.0,8529.0,245280.0,13072.0,905591.0,0.0,,,,0.0
1034,2.01953125,32,-125.0,0.0,0.0,504337.0,1561956.0,11337.0,338786.0,8529.0,245280.0,13072.0,905591.0,0.0,,,,0.0
1035,2.021484375,32,-386.0,0.0,0.0,504337.0,1561956.0,11337.0,338786.0,8529.0,245280.0,13072.0,905591.0,0.0,,,,0.0
1036,2.0234375,32,-453.0,0.0,0.0,504337.0,1561956.0,11337.0,338786.0,8529.0,245280.0,13072.0,905591.0,0.0,,,,0.0
1037,2.025390625,32,-282.0,0.0,0.0,504337.0,1561956.0,11337.0,338786.0,8529.0,245280.0,13072.0,905591.0,0.0,,,,0.0
1038,2.02734375,32,-27.0,0.0,0.0,504337.0,1561956.0,11337.0,338786.0,8529.0,245280.0,13072.0,905591.0,0.0,,,,0.0
1039,2.029296875,32,200.0,0.0,0.0,504337.0,1561956.0,11337.0,338786.0,8529.0,245280.0,13072.0,905591.0,0.0,,,,0.0
1040,2.03125,32,385.0,0.0,0.0,504337.0,1561956.0,11337.0,338786.0,8529.0,245280.0,13072.0,905591.0,0.0,,,,0.0
1041,2.033203125,32,488.0,0.0,0.0,504337.0,1561956.0,11337.0,338786.0,8529.0,245280.0,13072.0,905591.0,0.0,,,,0.0
1042,2.03515625,32,471.0,0.0,0.0,504337.0,1561956.0,11337.0,338786.0,8529.0,245280.0,13072.0,905591.0,0.0,,,,0.0
1043,2.037109375,32,261.0,0.0,0.0,504337.0,1561956.0,11337.0,338786.0,8529.0,245280.0,13072.0,905591.0,0.0,,,,0.0
1044,2.0390625,32,-83.0,0.0,0.0,504337.0,1561956.0,11337.0,338786.0,8529.0,245280.0,13072.0,905591.0,0.0,,,,0.0
1045,2.041015625,32,-382.0,0.0,0.0,504337.0,1561956.0,11337.0,338786.0,8529.0,245280.0,13072.0,905591.0,0.0,,,,0.0
1046,2.04296875,32,-471.0,0.0,0.0,504337.0,1561956.0,11337.0,338786.0,8529.0,245280.0,13072.0,905591.0,0.0,,,,0.0
1047,2.044921875,32,-309.0,0.0,0.0,504337.0,1561956.0,11337.0,338786.0,8529.0,245280.0,13072.0,905591.0,0.0,,,,0.0
1048,2.046875,32,-38.0,0.0,0.0,504337.0,1561956.0,11337.0,338786.0,8529.0,245280.0,13072.0,905591.0,0.0,,,,0.0
1049,2.048828125,32,215.0,0.0,0.0,504337.0,1561956.0,11337.0,338786.0,8529.0,245280.0,13072.0,905591.0,0.0,,,,0.0
1050,2.05078125,32,409.0,0.0,0.0,504337.0,1561956.0,11337.0,338786.0,8529.0,245280.0,13072.0,905591.0,0.0,,,,0.0
1051,2.052734375,32,524.0,0.0,0.0,504337.0,1561956.0,11337.0,338786.0,8529.0,245280.0,13072.0,905591.0,0.0,,,,0.0
1052,2.0546875,32,537.0,0.0,0.0,504337.0,1561956.0,11337.0,338786.0,8529.0,245280.0,13072.0,905591.0,0.0,,,,0.0
1053,2.056640625,32,406.0,0.0,0.0,504337.0,1561956.0,11337.0,338786.0,8529.0,245280.0,13072.0,905591.0,0.0,,,,0.0
1054,2.05859375,32,117.0,0.0,0.0,504337.0,1561956.0,11337.0,338786.0,8529.0,245280.0,13072.0,905591.0,0.0,,,,0.0
1055,2.060546875,32,-213.0,0.0,0.0,504337.0,1561956.0,11337.0,338786.0,8529.0,245280.0,13072.0,905591.0,0.0,,,,0.0
1056,2.0625,33,-423.0,0.0,0.0,504337.0,1561956.0,11337.0,338786.0,8529.0,245280.0,13072.0,905591.0,0.0,,,,0.0
1057,2.064453125,33,-390.0,0.0,0.0,504337.0,1561956.0,11337.0,338786.0,8529.0,245280.0,13072.0,905591.0,0.0,,,,0.0
1058,2.06640625,33,-149.0,0.0,0.0,504337.0,1561956.0,11337.0,338786.0,8529.0,245280.0,13072.0,905591.0,0.0,,,,0.0
1059,2.068359375,33,123.0,0.0,0.0,504337.0,1561956.0,11337.0,338786.0,8529.0,245280.0,13072.0,905591.0,0.0,,,,0.0
1060,2.0703125,33,330.0,0.0,0.0,504337.0,1561956.0,11337.0,338786.0,8529.0,245280.0,13072.0,905591.0,0.0,,,,0.0
1061,2.072265625,33,459.0,0.0,0.0,504337.0,1561956.0,11337.0,338786.0,8529.0,245280.0,13072.0,905591.0,0.0,,,,0.0
1062,2.07421875,33,498.0,0.0,0.0,504337.0,1561956.0,11337.0,338786.0,8529.0,245280.0,13072.0,905591.0,0.0,,,,0.0
1063,2.076171875,33,407.0,0.0,0.0,504337.0,1561956.0,11337.0,338786.0,8529.0,245280.0,13072.0,905591.0,0.0,,,,0.0
1064,2.078125,33,153.0,0.0,0.0,504337.0,1561956.0,11337.0,338786.0,8529.0,245280.0,13072.0,905591.0,0.0,,,,0.0
1065,2.080078125,33,-204.0,0.0,0.0,504337.0,1561956.0,11337.0,338786.0,8529.0,245280.0,13072.0,905591.0,0.0,,,,0.0
1066,2.08203125,33,-474.0,0.0,0.0,504337.0,1561956.0,11337.0,338786.0,8529.0,245280.0,13072.0,905591.0,0.0,,,,0.0
1067,2.083984375,33,-501.0,0.0,0.0,504337.0,1561956.0,11337.0,338786.0,8529.0,245280.0,13072.0,905591.0,0.0,,,,0.0
